405nmdiode
Integration time [ms]:   2,000
Averaging Nr. [scans]: 2
Smoothing Nr. [pixels]: 0
Data measured with spectrometer [name]: 1005064U1
Wave   ;Sample   ;Dark     ;Reference;Scope Corrected for Dark
[nm]   ;[counts] ;[counts] ;[counts] 

 177,70;  506,500;  429,500;    0,000;77,00000
 178,04;  491,000;  472,000;    0,000;19,00000
 178,38;  454,000;  411,000;    0,000;43,00000
 178,73;  491,500;  431,500;    0,000;60,00000
 179,07;  473,500;  425,000;    0,000;48,50000
 179,41;  503,000;  456,500;    0,000;46,50000
 179,75;  461,500;  432,000;    0,000;29,50000
 180,09;  494,000;  416,000;    0,000;78,00000
 180,44;  492,500;  423,500;    0,000;69,00000
 180,78;  499,500;  428,000;    0,000;71,50000
 181,12;  505,000;  481,000;    0,000;24,00000
 181,46;  452,500;  421,500;    0,000;31,00000
 181,81;  439,500;  406,000;    0,000;33,50000
 182,15;  460,000;  387,500;    0,000;72,50000
 182,49;  479,500;  403,500;    0,000;76,00000
 182,83;  448,500;  392,000;    0,000;56,50000
 183,17;  458,000;  392,500;    0,000;65,50000
 183,52;  438,500;  380,000;    0,000;58,50000
 183,86;  485,000;  416,500;    0,000;68,50000
 184,20;  448,500;  435,500;    0,000;13,00000
 184,54;  469,000;  429,000;    0,000;40,00000
 184,88;  454,000;  440,000;    0,000;14,00000
 185,23;  472,000;  389,500;    0,000;82,50000
 185,57;  430,500;  397,000;    0,000;33,50000
 185,91;  504,000;  430,500;    0,000;73,50000
 186,25;  446,000;  411,000;    0,000;35,00000
 186,59;  430,500;  417,000;    0,000;13,50000
 186,94;  465,000;  434,500;    0,000;30,50000
 187,28;  458,000;  414,500;    0,000;43,50000
 187,62;  456,500;  397,000;    0,000;59,50000
 187,96;  456,500;  434,000;    0,000;22,50000
 188,30;  409,000;  404,000;    0,000; 5,00000
 188,65;  483,000;  445,000;    0,000;38,00000
 188,99;  469,000;  405,000;    0,000;64,00000
 189,33;  445,000;  428,000;    0,000;17,00000
 189,67;  497,000;  403,500;    0,000;93,50000
 190,01;  450,000;  461,000;    0,000;-11,00000
 190,36;  433,000;  452,000;    0,000;-19,00000
 190,70;  448,000;  429,000;    0,000;19,00000
 191,04;  456,000;  402,500;    0,000;53,50000
 191,38;  435,500;  404,500;    0,000;31,00000
 191,72;  452,500;  436,000;    0,000;16,50000
 192,07;  498,500;  449,000;    0,000;49,50000
 192,41;  469,000;  442,500;    0,000;26,50000
 192,75;  438,500;  410,000;    0,000;28,50000
 193,09;  456,500;  438,000;    0,000;18,50000
 193,43;  452,000;  378,500;    0,000;73,50000
 193,78;  436,000;  431,500;    0,000; 4,50000
 194,12;  506,000;  432,000;    0,000;74,00000
 194,46;  451,000;  423,000;    0,000;28,00000
 194,80;  448,000;  408,500;    0,000;39,50000
 195,14;  443,000;  372,000;    0,000;71,00000
 195,48;  418,500;  443,500;    0,000;-25,00000
 195,83;  475,000;  410,500;    0,000;64,50000
 196,17;  458,500;  432,000;    0,000;26,50000
 196,51;  518,500;  433,000;    0,000;85,50000
 196,85;  444,000;  464,000;    0,000;-20,00000
 197,19;  452,000;  435,500;    0,000;16,50000
 197,53;  451,000;  416,000;    0,000;35,00000
 197,88;  468,000;  422,000;    0,000;46,00000
 198,22;  483,000;  432,500;    0,000;50,50000
 198,56;  446,000;  416,500;    0,000;29,50000
 198,90;  494,500;  440,500;    0,000;54,00000
 199,24;  476,500;  399,000;    0,000;77,50000
 199,59;  483,500;  439,500;    0,000;44,00000
 199,93;  431,500;  428,000;    0,000; 3,50000
 200,27;  466,000;  390,000;    0,000;76,00000
 200,61;  484,000;  355,000;    0,000;129,00000
 200,95;  479,000;  409,000;    0,000;70,00000
 201,29;  457,500;  409,500;    0,000;48,00000
 201,63;  490,500;  452,000;    0,000;38,50000
 201,98;  471,000;  446,500;    0,000;24,50000
 202,32;  496,000;  418,000;    0,000;78,00000
 202,66;  457,000;  414,000;    0,000;43,00000
 203,00;  491,500;  379,500;    0,000;112,00000
 203,34;  479,000;  397,000;    0,000;82,00000
 203,68;  468,500;  402,000;    0,000;66,50000
 204,03;  474,000;  404,500;    0,000;69,50000
 204,37;  481,000;  425,500;    0,000;55,50000
 204,71;  451,500;  415,500;    0,000;36,00000
 205,05;  453,500;  415,000;    0,000;38,50000
 205,39;  456,000;  448,000;    0,000; 8,00000
 205,73;  463,000;  438,000;    0,000;25,00000
 206,08;  481,000;  408,500;    0,000;72,50000
 206,42;  477,500;  451,500;    0,000;26,00000
 206,76;  429,500;  386,500;    0,000;43,00000
 207,10;  415,500;  430,000;    0,000;-14,50000
 207,44;  464,000;  430,500;    0,000;33,50000
 207,78;  480,500;  411,000;    0,000;69,50000
 208,12;  433,500;  415,500;    0,000;18,00000
 208,47;  481,500;  409,000;    0,000;72,50000
 208,81;  433,500;  412,500;    0,000;21,00000
 209,15;  490,500;  455,000;    0,000;35,50000
 209,49;  486,000;  388,500;    0,000;97,50000
 209,83;  469,500;  450,500;    0,000;19,00000
 210,17;  480,500;  404,000;    0,000;76,50000
 210,51;  464,500;  429,000;    0,000;35,50000
 210,86;  421,000;  393,000;    0,000;28,00000
 211,20;  530,500;  426,000;    0,000;104,50000
 211,54;  429,500;  438,000;    0,000;-8,50000
 211,88;  458,000;  449,500;    0,000; 8,50000
 212,22;  447,000;  385,500;    0,000;61,50000
 212,56;  475,500;  407,500;    0,000;68,00000
 212,90;  431,000;  417,500;    0,000;13,50000
 213,24;  465,500;  436,500;    0,000;29,00000
 213,59;  436,500;  385,500;    0,000;51,00000
 213,93;  496,500;  421,500;    0,000;75,00000
 214,27;  459,500;  417,500;    0,000;42,00000
 214,61;  474,500;  439,500;    0,000;35,00000
 214,95;  472,500;  426,000;    0,000;46,50000
 215,29;  473,000;  413,500;    0,000;59,50000
 215,63;  476,000;  398,500;    0,000;77,50000
 215,97;  444,500;  420,500;    0,000;24,00000
 216,32;  438,000;  429,500;    0,000; 8,50000
 216,66;  458,000;  379,500;    0,000;78,50000
 217,00;  474,500;  420,500;    0,000;54,00000
 217,34;  496,000;  448,000;    0,000;48,00000
 217,68;  475,000;  425,000;    0,000;50,00000
 218,02;  523,500;  423,500;    0,000;100,00000
 218,36;  434,500;  427,500;    0,000; 7,00000
 218,70;  412,000;  452,000;    0,000;-40,00000
 219,05;  459,000;  407,000;    0,000;52,00000
 219,39;  489,000;  448,500;    0,000;40,50000
 219,73;  469,500;  388,500;    0,000;81,00000
 220,07;  454,000;  428,500;    0,000;25,50000
 220,41;  463,000;  397,000;    0,000;66,00000
 220,75;  454,500;  418,000;    0,000;36,50000
 221,09;  509,000;  397,000;    0,000;112,00000
 221,43;  493,500;  462,000;    0,000;31,50000
 221,77;  474,000;  425,000;    0,000;49,00000
 222,12;  451,000;  399,000;    0,000;52,00000
 222,46;  494,000;  388,500;    0,000;105,50000
 222,80;  430,500;  443,000;    0,000;-12,50000
 223,14;  494,500;  429,000;    0,000;65,50000
 223,48;  435,000;  401,500;    0,000;33,50000
 223,82;  509,000;  427,000;    0,000;82,00000
 224,16;  482,000;  419,000;    0,000;63,00000
 224,50;  444,000;  459,000;    0,000;-15,00000
 224,84;  490,000;  449,500;    0,000;40,50000
 225,18;  511,000;  430,500;    0,000;80,50000
 225,53;  437,000;  444,000;    0,000;-7,00000
 225,87;  482,500;  425,500;    0,000;57,00000
 226,21;  479,000;  437,000;    0,000;42,00000
 226,55;  464,500;  425,500;    0,000;39,00000
 226,89;  464,500;  430,000;    0,000;34,50000
 227,23;  453,500;  416,500;    0,000;37,00000
 227,57;  477,000;  410,500;    0,000;66,50000
 227,91;  492,000;  426,500;    0,000;65,50000
 228,25;  507,000;  441,500;    0,000;65,50000
 228,59;  489,000;  446,500;    0,000;42,50000
 228,93;  431,500;  467,000;    0,000;-35,50000
 229,28;  452,500;  457,000;    0,000;-4,50000
 229,62;  448,000;  438,000;    0,000;10,00000
 229,96;  461,500;  422,500;    0,000;39,00000
 230,30;  432,500;  438,000;    0,000;-5,50000
 230,64;  492,500;  454,000;    0,000;38,50000
 230,98;  465,000;  437,000;    0,000;28,00000
 231,32;  448,500;  460,000;    0,000;-11,50000
 231,66;  461,500;  426,000;    0,000;35,50000
 232,00;  483,000;  421,500;    0,000;61,50000
 232,34;  445,000;  413,500;    0,000;31,50000
 232,68;  507,000;  445,500;    0,000;61,50000
 233,02;  495,000;  399,000;    0,000;96,00000
 233,36;  449,500;  436,000;    0,000;13,50000
 233,71;  482,000;  401,500;    0,000;80,50000
 234,05;  503,500;  412,500;    0,000;91,00000
 234,39;  459,000;  430,500;    0,000;28,50000
 234,73;  487,500;  421,500;    0,000;66,00000
 235,07;  483,500;  388,000;    0,000;95,50000
 235,41;  480,500;  429,500;    0,000;51,00000
 235,75;  466,500;  454,000;    0,000;12,50000
 236,09;  482,000;  448,000;    0,000;34,00000
 236,43;  413,500;  426,500;    0,000;-13,00000
 236,77;  489,500;  423,500;    0,000;66,00000
 237,11;  523,000;  388,500;    0,000;134,50000
 237,45;  489,000;  432,500;    0,000;56,50000
 237,79;  488,000;  473,000;    0,000;15,00000
 238,13;  493,500;  414,000;    0,000;79,50000
 238,47;  461,500;  405,500;    0,000;56,00000
 238,82;  443,000;  424,000;    0,000;19,00000
 239,16;  467,000;  466,000;    0,000; 1,00000
 239,50;  468,000;  384,500;    0,000;83,50000
 239,84;  497,500;  385,500;    0,000;112,00000
 240,18;  453,500;  477,500;    0,000;-24,00000
 240,52;  486,000;  418,500;    0,000;67,50000
 240,86;  482,500;  413,500;    0,000;69,00000
 241,20;  497,000;  432,000;    0,000;65,00000
 241,54;  446,500;  435,500;    0,000;11,00000
 241,88;  419,500;  416,500;    0,000; 3,00000
 242,22;  476,500;  444,000;    0,000;32,50000
 242,56;  454,000;  359,500;    0,000;94,50000
 242,90;  482,500;  417,000;    0,000;65,50000
 243,24;  488,000;  422,500;    0,000;65,50000
 243,58;  463,500;  430,000;    0,000;33,50000
 243,92;  492,000;  451,000;    0,000;41,00000
 244,26;  489,000;  394,500;    0,000;94,50000
 244,60;  481,000;  382,500;    0,000;98,50000
 244,94;  487,500;  405,000;    0,000;82,50000
 245,28;  443,500;  444,500;    0,000;-1,00000
 245,62;  457,500;  401,500;    0,000;56,00000
 245,97;  443,500;  418,000;    0,000;25,50000
 246,31;  469,000;  395,000;    0,000;74,00000
 246,65;  402,500;  406,000;    0,000;-3,50000
 246,99;  457,500;  436,000;    0,000;21,50000
 247,33;  451,500;  432,500;    0,000;19,00000
 247,67;  448,500;  412,500;    0,000;36,00000
 248,01;  422,000;  420,000;    0,000; 2,00000
 248,35;  447,000;  392,000;    0,000;55,00000
 248,69;  476,500;  423,500;    0,000;53,00000
 249,03;  479,500;  451,000;    0,000;28,50000
 249,37;  456,000;  457,000;    0,000;-1,00000
 249,71;  425,500;  432,000;    0,000;-6,50000
 250,05;  484,500;  425,000;    0,000;59,50000
 250,39;  481,000;  399,500;    0,000;81,50000
 250,73;  491,500;  428,500;    0,000;63,00000
 251,07;  457,500;  408,500;    0,000;49,00000
 251,41;  483,500;  392,000;    0,000;91,50000
 251,75;  443,000;  424,000;    0,000;19,00000
 252,09;  465,500;  429,500;    0,000;36,00000
 252,43;  470,500;  414,000;    0,000;56,50000
 252,77;  428,500;  421,000;    0,000; 7,50000
 253,11;  471,500;  416,000;    0,000;55,50000
 253,45;  498,000;  437,000;    0,000;61,00000
 253,79;  437,500;  438,500;    0,000;-1,00000
 254,13;  448,000;  451,500;    0,000;-3,50000
 254,47;  481,000;  380,000;    0,000;101,00000
 254,81;  465,500;  428,500;    0,000;37,00000
 255,15;  492,000;  388,500;    0,000;103,50000
 255,49;  438,500;  412,000;    0,000;26,50000
 255,83;  458,500;  404,500;    0,000;54,00000
 256,17;  468,000;  458,000;    0,000;10,00000
 256,51;  470,500;  447,000;    0,000;23,50000
 256,85;  451,000;  413,000;    0,000;38,00000
 257,19;  467,000;  415,500;    0,000;51,50000
 257,53;  446,000;  464,000;    0,000;-18,00000
 257,87;  477,000;  426,500;    0,000;50,50000
 258,21;  493,000;  432,500;    0,000;60,50000
 258,55;  447,000;  444,500;    0,000; 2,50000
 258,89;  496,500;  411,500;    0,000;85,00000
 259,23;  459,500;  396,500;    0,000;63,00000
 259,57;  453,000;  432,000;    0,000;21,00000
 259,91;  452,000;  448,000;    0,000; 4,00000
 260,25;  396,500;  409,000;    0,000;-12,50000
 260,59;  447,000;  414,500;    0,000;32,50000
 260,93;  498,500;  449,000;    0,000;49,50000
 261,27;  506,000;  404,500;    0,000;101,50000
 261,61;  474,500;  458,500;    0,000;16,00000
 261,95;  469,000;  423,000;    0,000;46,00000
 262,29;  490,000;  444,000;    0,000;46,00000
 262,63;  490,000;  421,000;    0,000;69,00000
 262,97;  414,500;  434,000;    0,000;-19,50000
 263,31;  430,000;  475,000;    0,000;-45,00000
 263,65;  428,000;  395,500;    0,000;32,50000
 263,99;  457,000;  417,000;    0,000;40,00000
 264,33;  458,500;  415,500;    0,000;43,00000
 264,67;  485,000;  454,500;    0,000;30,50000
 265,01;  447,500;  375,000;    0,000;72,50000
 265,35;  464,000;  403,500;    0,000;60,50000
 265,69;  436,000;  404,000;    0,000;32,00000
 266,03;  467,000;  451,500;    0,000;15,50000
 266,37;  472,500;  423,000;    0,000;49,50000
 266,71;  457,500;  432,000;    0,000;25,50000
 267,05;  478,000;  427,500;    0,000;50,50000
 267,39;  455,500;  414,500;    0,000;41,00000
 267,73;  494,000;  416,500;    0,000;77,50000
 268,07;  496,000;  417,500;    0,000;78,50000
 268,41;  413,500;  405,000;    0,000; 8,50000
 268,75;  485,500;  446,500;    0,000;39,00000
 269,09;  458,500;  406,000;    0,000;52,50000
 269,43;  446,500;  390,000;    0,000;56,50000
 269,77;  478,000;  430,500;    0,000;47,50000
 270,11;  493,500;  423,500;    0,000;70,00000
 270,45;  464,500;  407,000;    0,000;57,50000
 270,79;  426,000;  427,000;    0,000;-1,00000
 271,13;  454,000;  430,500;    0,000;23,50000
 271,47;  476,500;  389,000;    0,000;87,50000
 271,80;  477,500;  427,500;    0,000;50,00000
 272,14;  477,000;  456,000;    0,000;21,00000
 272,48;  443,500;  390,000;    0,000;53,50000
 272,82;  468,500;  429,000;    0,000;39,50000
 273,16;  459,000;  435,500;    0,000;23,50000
 273,50;  455,500;  425,500;    0,000;30,00000
 273,84;  476,500;  428,500;    0,000;48,00000
 274,18;  464,500;  408,000;    0,000;56,50000
 274,52;  485,000;  440,000;    0,000;45,00000
 274,86;  471,000;  413,500;    0,000;57,50000
 275,20;  470,500;  422,500;    0,000;48,00000
 275,54;  458,000;  429,000;    0,000;29,00000
 275,88;  481,000;  419,500;    0,000;61,50000
 276,22;  446,500;  371,000;    0,000;75,50000
 276,56;  478,500;  435,500;    0,000;43,00000
 276,90;  431,000;  419,000;    0,000;12,00000
 277,24;  462,500;  409,000;    0,000;53,50000
 277,58;  469,000;  413,500;    0,000;55,50000
 277,92;  466,000;  399,000;    0,000;67,00000
 278,26;  468,000;  390,500;    0,000;77,50000
 278,60;  432,500;  417,000;    0,000;15,50000
 278,93;  488,000;  424,000;    0,000;64,00000
 279,27;  456,500;  433,500;    0,000;23,00000
 279,61;  471,000;  411,500;    0,000;59,50000
 279,95;  460,000;  439,000;    0,000;21,00000
 280,29;  452,000;  413,500;    0,000;38,50000
 280,63;  432,000;  424,500;    0,000; 7,50000
 280,97;  498,000;  433,500;    0,000;64,50000
 281,31;  443,000;  432,500;    0,000;10,50000
 281,65;  516,500;  408,500;    0,000;108,00000
 281,99;  442,500;  433,500;    0,000; 9,00000
 282,33;  441,500;  420,000;    0,000;21,50000
 282,67;  482,000;  395,500;    0,000;86,50000
 283,01;  489,000;  435,000;    0,000;54,00000
 283,35;  424,000;  454,000;    0,000;-30,00000
 283,69;  453,000;  422,500;    0,000;30,50000
 284,02;  447,500;  467,500;    0,000;-20,00000
 284,36;  474,000;  417,500;    0,000;56,50000
 284,70;  436,000;  406,000;    0,000;30,00000
 285,04;  465,500;  447,000;    0,000;18,50000
 285,38;  449,000;  418,000;    0,000;31,00000
 285,72;  492,500;  406,500;    0,000;86,00000
 286,06;  501,500;  436,500;    0,000;65,00000
 286,40;  472,000;  441,000;    0,000;31,00000
 286,74;  460,500;  438,000;    0,000;22,50000
 287,08;  462,500;  408,500;    0,000;54,00000
 287,42;  416,000;  427,000;    0,000;-11,00000
 287,76;  483,500;  400,000;    0,000;83,50000
 288,09;  461,000;  433,000;    0,000;28,00000
 288,43;  516,000;  430,500;    0,000;85,50000
 288,77;  449,000;  409,000;    0,000;40,00000
 289,11;  431,500;  438,000;    0,000;-6,50000
 289,45;  504,500;  418,000;    0,000;86,50000
 289,79;  481,500;  405,500;    0,000;76,00000
 290,13;  400,500;  431,000;    0,000;-30,50000
 290,47;  456,500;  453,500;    0,000; 3,00000
 290,81;  458,500;  432,000;    0,000;26,50000
 291,15;  473,000;  449,000;    0,000;24,00000
 291,49;  483,500;  395,500;    0,000;88,00000
 291,82;  474,000;  437,500;    0,000;36,50000
 292,16;  453,000;  390,500;    0,000;62,50000
 292,50;  447,000;  387,500;    0,000;59,50000
 292,84;  453,000;  430,500;    0,000;22,50000
 293,18;  450,500;  438,500;    0,000;12,00000
 293,52;  471,000;  444,500;    0,000;26,50000
 293,86;  491,000;  431,000;    0,000;60,00000
 294,20;  434,000;  423,500;    0,000;10,50000
 294,54;  468,000;  447,000;    0,000;21,00000
 294,88;  470,000;  424,000;    0,000;46,00000
 295,21;  506,000;  440,000;    0,000;66,00000
 295,55;  491,500;  395,500;    0,000;96,00000
 295,89;  476,000;  460,500;    0,000;15,50000
 296,23;  438,500;  415,000;    0,000;23,50000
 296,57;  462,500;  447,000;    0,000;15,50000
 296,91;  481,500;  414,500;    0,000;67,00000
 297,25;  422,500;  412,500;    0,000;10,00000
 297,59;  490,000;  383,000;    0,000;107,00000
 297,93;  465,000;  445,500;    0,000;19,50000
 298,26;  487,000;  424,500;    0,000;62,50000
 298,60;  426,500;  424,000;    0,000; 2,50000
 298,94;  474,000;  413,000;    0,000;61,00000
 299,28;  446,500;  432,500;    0,000;14,00000
 299,62;  440,000;  405,500;    0,000;34,50000
 299,96;  475,500;  390,000;    0,000;85,50000
 300,30;  469,000;  420,000;    0,000;49,00000
 300,64;  472,500;  399,000;    0,000;73,50000
 300,97;  494,000;  411,000;    0,000;83,00000
 301,31;  428,000;  483,500;    0,000;-55,50000
 301,65;  474,500;  458,000;    0,000;16,50000
 301,99;  437,000;  400,500;    0,000;36,50000
 302,33;  501,000;  399,000;    0,000;102,00000
 302,67;  436,000;  462,500;    0,000;-26,50000
 303,01;  514,500;  443,500;    0,000;71,00000
 303,35;  432,000;  426,500;    0,000; 5,50000
 303,68;  489,500;  433,000;    0,000;56,50000
 304,02;  477,000;  440,500;    0,000;36,50000
 304,36;  499,500;  443,000;    0,000;56,50000
 304,70;  487,000;  397,500;    0,000;89,50000
 305,04;  403,500;  450,000;    0,000;-46,50000
 305,38;  449,500;  448,000;    0,000; 1,50000
 305,72;  497,500;  403,000;    0,000;94,50000
 306,05;  495,500;  473,000;    0,000;22,50000
 306,39;  473,000;  433,500;    0,000;39,50000
 306,73;  433,500;  394,000;    0,000;39,50000
 307,07;  442,500;  403,500;    0,000;39,00000
 307,41;  466,500;  393,000;    0,000;73,50000
 307,75;  438,500;  423,500;    0,000;15,00000
 308,09;  444,500;  421,500;    0,000;23,00000
 308,42;  461,500;  423,000;    0,000;38,50000
 308,76;  415,000;  362,500;    0,000;52,50000
 309,10;  463,000;  461,000;    0,000; 2,00000
 309,44;  525,000;  429,500;    0,000;95,50000
 309,78;  459,000;  452,500;    0,000; 6,50000
 310,12;  449,500;  425,500;    0,000;24,00000
 310,45;  465,500;  463,000;    0,000; 2,50000
 310,79;  495,000;  429,500;    0,000;65,50000
 311,13;  472,500;  420,500;    0,000;52,00000
 311,47;  471,500;  402,000;    0,000;69,50000
 311,81;  434,500;  432,500;    0,000; 2,00000
 312,15;  445,500;  419,500;    0,000;26,00000
 312,49;  442,500;  366,500;    0,000;76,00000
 312,82;  487,000;  405,000;    0,000;82,00000
 313,16;  469,500;  429,500;    0,000;40,00000
 313,50;  460,000;  437,000;    0,000;23,00000
 313,84;  498,500;  446,500;    0,000;52,00000
 314,18;  472,000;  383,000;    0,000;89,00000
 314,52;  480,000;  388,500;    0,000;91,50000
 314,85;  451,500;  425,500;    0,000;26,00000
 315,19;  514,000;  415,500;    0,000;98,50000
 315,53;  468,000;  421,000;    0,000;47,00000
 315,87;  450,000;  422,000;    0,000;28,00000
 316,21;  465,500;  429,000;    0,000;36,50000
 316,55;  464,500;  416,500;    0,000;48,00000
 316,88;  450,500;  406,500;    0,000;44,00000
 317,22;  454,000;  369,000;    0,000;85,00000
 317,56;  491,500;  428,500;    0,000;63,00000
 317,90;  426,500;  406,500;    0,000;20,00000
 318,24;  468,000;  439,000;    0,000;29,00000
 318,57;  463,000;  425,000;    0,000;38,00000
 318,91;  460,000;  435,000;    0,000;25,00000
 319,25;  453,500;  424,000;    0,000;29,50000
 319,59;  489,000;  440,000;    0,000;49,00000
 319,93;  415,000;  413,500;    0,000; 1,50000
 320,27;  460,500;  397,500;    0,000;63,00000
 320,60;  442,000;  446,000;    0,000;-4,00000
 320,94;  452,500;  431,500;    0,000;21,00000
 321,28;  430,500;  399,500;    0,000;31,00000
 321,62;  467,500;  443,500;    0,000;24,00000
 321,96;  456,000;  415,500;    0,000;40,50000
 322,29;  477,000;  405,000;    0,000;72,00000
 322,63;  420,000;  409,500;    0,000;10,50000
 322,97;  462,000;  398,500;    0,000;63,50000
 323,31;  474,500;  406,500;    0,000;68,00000
 323,65;  478,500;  412,500;    0,000;66,00000
 323,98;  468,500;  376,500;    0,000;92,00000
 324,32;  475,500;  397,500;    0,000;78,00000
 324,66;  455,500;  442,000;    0,000;13,50000
 325,00;  445,000;  397,000;    0,000;48,00000
 325,34;  484,000;  390,000;    0,000;94,00000
 325,67;  454,000;  398,000;    0,000;56,00000
 326,01;  460,500;  445,500;    0,000;15,00000
 326,35;  494,500;  398,500;    0,000;96,00000
 326,69;  417,500;  405,000;    0,000;12,50000
 327,03;  472,000;  431,000;    0,000;41,00000
 327,36;  499,000;  437,500;    0,000;61,50000
 327,70;  476,000;  406,500;    0,000;69,50000
 328,04;  483,000;  418,000;    0,000;65,00000
 328,38;  451,500;  421,000;    0,000;30,50000
 328,72;  466,000;  425,000;    0,000;41,00000
 329,05;  503,500;  447,500;    0,000;56,00000
 329,39;  505,500;  438,000;    0,000;67,50000
 329,73;  463,500;  390,500;    0,000;73,00000
 330,07;  490,500;  407,000;    0,000;83,50000
 330,41;  432,000;  462,000;    0,000;-30,00000
 330,74;  449,500;  435,500;    0,000;14,00000
 331,08;  491,500;  444,000;    0,000;47,50000
 331,42;  457,500;  425,000;    0,000;32,50000
 331,76;  466,000;  435,000;    0,000;31,00000
 332,09;  486,000;  441,500;    0,000;44,50000
 332,43;  471,500;  434,500;    0,000;37,00000
 332,77;  441,500;  423,500;    0,000;18,00000
 333,11;  471,500;  468,000;    0,000; 3,50000
 333,45;  449,500;  417,500;    0,000;32,00000
 333,78;  488,500;  432,500;    0,000;56,00000
 334,12;  451,500;  429,000;    0,000;22,50000
 334,46;  424,500;  413,500;    0,000;11,00000
 334,80;  447,500;  421,000;    0,000;26,50000
 335,13;  458,500;  438,500;    0,000;20,00000
 335,47;  423,000;  425,000;    0,000;-2,00000
 335,81;  462,500;  439,500;    0,000;23,00000
 336,15;  444,000;  458,500;    0,000;-14,50000
 336,48;  452,500;  402,500;    0,000;50,00000
 336,82;  473,000;  433,000;    0,000;40,00000
 337,16;  473,500;  450,500;    0,000;23,00000
 337,50;  500,000;  391,500;    0,000;108,50000
 337,84;  437,500;  406,000;    0,000;31,50000
 338,17;  448,000;  440,000;    0,000; 8,00000
 338,51;  430,000;  441,000;    0,000;-11,00000
 338,85;  477,500;  393,000;    0,000;84,50000
 339,19;  480,500;  424,500;    0,000;56,00000
 339,52;  498,500;  396,500;    0,000;102,00000
 339,86;  471,000;  422,500;    0,000;48,50000
 340,20;  444,500;  394,500;    0,000;50,00000
 340,54;  464,500;  417,500;    0,000;47,00000
 340,87;  538,000;  441,000;    0,000;97,00000
 341,21;  472,000;  471,000;    0,000; 1,00000
 341,55;  462,000;  405,000;    0,000;57,00000
 341,89;  517,000;  464,000;    0,000;53,00000
 342,22;  469,000;  511,500;    0,000;-42,50000
 342,56;  426,000;  377,500;    0,000;48,50000
 342,90;  449,500;  428,500;    0,000;21,00000
 343,24;  449,000;  392,500;    0,000;56,50000
 343,57;  455,500;  382,000;    0,000;73,50000
 343,91;  453,500;  437,500;    0,000;16,00000
 344,25;  462,500;  423,500;    0,000;39,00000
 344,59;  472,500;  404,000;    0,000;68,50000
 344,92;  451,500;  403,000;    0,000;48,50000
 345,26;  477,500;  443,000;    0,000;34,50000
 345,60;  461,500;  405,500;    0,000;56,00000
 345,93;  442,000;  422,500;    0,000;19,50000
 346,27;  452,000;  451,000;    0,000; 1,00000
 346,61;  466,500;  409,500;    0,000;57,00000
 346,95;  483,500;  397,500;    0,000;86,00000
 347,28;  493,500;  429,500;    0,000;64,00000
 347,62;  455,000;  396,000;    0,000;59,00000
 347,96;  484,000;  448,000;    0,000;36,00000
 348,30;  485,000;  417,500;    0,000;67,50000
 348,63;  475,500;  451,500;    0,000;24,00000
 348,97;  462,500;  406,500;    0,000;56,00000
 349,31;  449,000;  433,000;    0,000;16,00000
 349,64;  479,000;  414,500;    0,000;64,50000
 349,98;  404,000;  482,500;    0,000;-78,50000
 350,32;  476,500;  450,500;    0,000;26,00000
 350,66;  492,000;  402,000;    0,000;90,00000
 350,99;  542,500;  441,500;    0,000;101,00000
 351,33;  483,000;  405,000;    0,000;78,00000
 351,67;  465,500;  454,000;    0,000;11,50000
 352,00;  423,000;  410,000;    0,000;13,00000
 352,34;  503,000;  440,500;    0,000;62,50000
 352,68;  470,000;  438,500;    0,000;31,50000
 353,02;  466,000;  477,500;    0,000;-11,50000
 353,35;  431,500;  437,500;    0,000;-6,00000
 353,69;  437,500;  422,000;    0,000;15,50000
 354,03;  422,000;  394,000;    0,000;28,00000
 354,36;  453,500;  420,000;    0,000;33,50000
 354,70;  457,500;  419,500;    0,000;38,00000
 355,04;  472,500;  393,500;    0,000;79,00000
 355,38;  465,500;  430,500;    0,000;35,00000
 355,71;  463,500;  420,000;    0,000;43,50000
 356,05;  473,500;  395,500;    0,000;78,00000
 356,39;  460,500;  427,500;    0,000;33,00000
 356,72;  460,000;  398,500;    0,000;61,50000
 357,06;  457,500;  421,000;    0,000;36,50000
 357,40;  465,500;  447,000;    0,000;18,50000
 357,73;  465,500;  399,500;    0,000;66,00000
 358,07;  445,000;  439,500;    0,000; 5,50000
 358,41;  499,500;  409,000;    0,000;90,50000
 358,75;  442,500;  423,500;    0,000;19,00000
 359,08;  481,500;  444,000;    0,000;37,50000
 359,42;  457,500;  401,500;    0,000;56,00000
 359,76;  436,000;  365,500;    0,000;70,50000
 360,09;  466,500;  409,500;    0,000;57,00000
 360,43;  471,000;  357,500;    0,000;113,50000
 360,77;  491,500;  383,000;    0,000;108,50000
 361,10;  444,500;  387,500;    0,000;57,00000
 361,44;  478,000;  429,500;    0,000;48,50000
 361,78;  465,000;  428,500;    0,000;36,50000
 362,11;  448,000;  414,500;    0,000;33,50000
 362,45;  497,500;  427,500;    0,000;70,00000
 362,79;  484,000;  377,500;    0,000;106,50000
 363,12;  471,000;  423,500;    0,000;47,50000
 363,46;  477,000;  427,000;    0,000;50,00000
 363,80;  484,000;  392,000;    0,000;92,00000
 364,14;  432,500;  418,500;    0,000;14,00000
 364,47;  452,000;  422,500;    0,000;29,50000
 364,81;  440,000;  427,500;    0,000;12,50000
 365,15;  478,500;  434,000;    0,000;44,50000
 365,48;  451,500;  444,500;    0,000; 7,00000
 365,82;  442,000;  422,000;    0,000;20,00000
 366,16;  478,000;  424,000;    0,000;54,00000
 366,49;  419,500;  439,500;    0,000;-20,00000
 366,83;  471,000;  422,500;    0,000;48,50000
 367,17;  508,500;  434,000;    0,000;74,50000
 367,50;  464,000;  415,500;    0,000;48,50000
 367,84;  485,500;  413,000;    0,000;72,50000
 368,18;  519,500;  398,500;    0,000;121,00000
 368,51;  465,000;  388,000;    0,000;77,00000
 368,85;  483,000;  422,000;    0,000;61,00000
 369,19;  519,500;  475,500;    0,000;44,00000
 369,52;  452,500;  436,000;    0,000;16,50000
 369,86;  499,500;  448,000;    0,000;51,50000
 370,20;  483,000;  437,000;    0,000;46,00000
 370,53;  487,000;  444,000;    0,000;43,00000
 370,87;  454,500;  503,500;    0,000;-49,00000
 371,20;  458,000;  416,500;    0,000;41,50000
 371,54;  462,500;  436,000;    0,000;26,50000
 371,88;  473,000;  418,500;    0,000;54,50000
 372,21;  492,000;  448,500;    0,000;43,50000
 372,55;  465,000;  451,500;    0,000;13,50000
 372,89;  461,500;  391,000;    0,000;70,50000
 373,22;  468,000;  382,500;    0,000;85,50000
 373,56;  451,500;  380,000;    0,000;71,50000
 373,90;  463,000;  435,000;    0,000;28,00000
 374,23;  495,000;  445,500;    0,000;49,50000
 374,57;  475,500;  450,000;    0,000;25,50000
 374,91;  436,500;  402,000;    0,000;34,50000
 375,24;  461,500;  412,500;    0,000;49,00000
 375,58;  481,000;  410,500;    0,000;70,50000
 375,92;  411,000;  385,500;    0,000;25,50000
 376,25;  483,500;  443,000;    0,000;40,50000
 376,59;  517,000;  402,000;    0,000;115,00000
 376,92;  434,500;  402,000;    0,000;32,50000
 377,26;  409,500;  430,000;    0,000;-20,50000
 377,60;  443,500;  456,500;    0,000;-13,00000
 377,93;  484,500;  442,000;    0,000;42,50000
 378,27;  431,000;  411,500;    0,000;19,50000
 378,61;  531,000;  465,500;    0,000;65,50000
 378,94;  454,500;  432,000;    0,000;22,50000
 379,28;  451,500;  446,000;    0,000; 5,50000
 379,61;  480,000;  413,000;    0,000;67,00000
 379,95;  446,500;  442,500;    0,000; 4,00000
 380,29;  450,500;  378,500;    0,000;72,00000
 380,62;  492,000;  464,000;    0,000;28,00000
 380,96;  473,500;  404,500;    0,000;69,00000
 381,30;  441,500;  424,000;    0,000;17,50000
 381,63;  433,000;  418,000;    0,000;15,00000
 381,97;  500,000;  436,000;    0,000;64,00000
 382,30;  502,500;  451,000;    0,000;51,50000
 382,64;  445,500;  429,000;    0,000;16,50000
 382,98;  448,500;  412,500;    0,000;36,00000
 383,31;  521,500;  419,500;    0,000;102,00000
 383,65;  436,000;  420,500;    0,000;15,50000
 383,99;  490,000;  443,500;    0,000;46,50000
 384,32;  445,500;  442,500;    0,000; 3,00000
 384,66;  482,000;  439,000;    0,000;43,00000
 384,99;  479,500;  417,500;    0,000;62,00000
 385,33;  480,000;  396,000;    0,000;84,00000
 385,67;  440,500;  455,500;    0,000;-15,00000
 386,00;  450,500;  410,000;    0,000;40,50000
 386,34;  478,000;  396,000;    0,000;82,00000
 386,67;  502,500;  426,500;    0,000;76,00000
 387,01;  499,000;  415,500;    0,000;83,50000
 387,35;  490,000;  418,500;    0,000;71,50000
 387,68;  497,000;  409,500;    0,000;87,50000
 388,02;  506,000;  387,000;    0,000;119,00000
 388,35;  510,000;  406,000;    0,000;104,00000
 388,69;  434,000;  399,500;    0,000;34,50000
 389,03;  489,000;  402,000;    0,000;87,00000
 389,36;  473,500;  433,500;    0,000;40,00000
 389,70;  477,000;  403,000;    0,000;74,00000
 390,03;  428,500;  409,000;    0,000;19,50000
 390,37;  500,500;  421,500;    0,000;79,00000
 390,71;  478,000;  448,500;    0,000;29,50000
 391,04;  481,500;  389,500;    0,000;92,00000
 391,38;  453,500;  458,000;    0,000;-4,50000
 391,71;  467,000;  452,000;    0,000;15,00000
 392,05;  460,000;  470,500;    0,000;-10,50000
 392,38;  446,500;  367,000;    0,000;79,50000
 392,72;  463,500;  419,500;    0,000;44,00000
 393,06;  470,500;  449,500;    0,000;21,00000
 393,39;  464,000;  410,500;    0,000;53,50000
 393,73;  480,000;  400,000;    0,000;80,00000
 394,06;  481,000;  418,000;    0,000;63,00000
 394,40;  472,500;  390,500;    0,000;82,00000
 394,73;  468,000;  424,500;    0,000;43,50000
 395,07;  475,500;  443,000;    0,000;32,50000
 395,41;  441,000;  431,500;    0,000; 9,50000
 395,74;  460,000;  410,500;    0,000;49,50000
 396,08;  459,000;  440,000;    0,000;19,00000
 396,41;  471,000;  439,000;    0,000;32,00000
 396,75;  444,500;  465,500;    0,000;-21,00000
 397,09;  461,000;  409,500;    0,000;51,50000
 397,42;  432,500;  379,000;    0,000;53,50000
 397,76;  490,000;  393,000;    0,000;97,00000
 398,09;  513,000;  412,500;    0,000;100,50000
 398,43;  513,000;  467,500;    0,000;45,50000
 398,76;  472,000;  424,500;    0,000;47,50000
 399,10;  495,000;  425,500;    0,000;69,50000
 399,43;  429,500;  432,000;    0,000;-2,50000
 399,77;  511,000;  399,000;    0,000;112,00000
 400,11;  489,500;  408,500;    0,000;81,00000
 400,44;  468,500;  433,000;    0,000;35,50000
 400,78;  477,500;  396,500;    0,000;81,00000
 401,11;  507,500;  394,500;    0,000;113,00000
 401,45;  538,500;  370,500;    0,000;168,00000
 401,78;  535,500;  407,000;    0,000;128,50000
 402,12;  530,000;  409,500;    0,000;120,50000
 402,45;  563,500;  393,000;    0,000;170,50000
 402,79;  606,500;  417,000;    0,000;189,50000
 403,13;  674,000;  390,000;    0,000;284,00000
 403,46;  955,500;  429,000;    0,000;526,50000
 403,80; 1558,000;  380,500;    0,000;1177,50000
 404,13; 3807,500;  430,000;    0,000;3377,50000
 404,47; 6734,000;  431,500;    0,000;6302,50000
 404,80; 7048,500;  426,000;    0,000;6622,50000
 405,14; 4459,500;  377,500;    0,000;4082,00000
 405,47; 2050,000;  407,000;    0,000;1643,00000
 405,81; 1043,500;  454,500;    0,000;589,00000
 406,14;  806,000;  438,500;    0,000;367,50000
 406,48;  654,000;  387,000;    0,000;267,00000
 406,81;  602,500;  428,500;    0,000;174,00000
 407,15;  519,000;  433,500;    0,000;85,50000
 407,49;  528,500;  419,000;    0,000;109,50000
 407,82;  502,000;  441,000;    0,000;61,00000
 408,16;  490,500;  449,500;    0,000;41,00000
 408,49;  515,000;  424,000;    0,000;91,00000
 408,83;  533,000;  423,500;    0,000;109,50000
 409,16;  523,000;  434,500;    0,000;88,50000
 409,50;  479,500;  460,000;    0,000;19,50000
 409,83;  512,000;  438,500;    0,000;73,50000
 410,17;  499,000;  394,000;    0,000;105,00000
 410,50;  494,000;  445,500;    0,000;48,50000
 410,84;  488,000;  396,000;    0,000;92,00000
 411,17;  470,500;  437,500;    0,000;33,00000
 411,51;  454,500;  472,000;    0,000;-17,50000
 411,84;  521,500;  426,500;    0,000;95,00000
 412,18;  478,500;  416,500;    0,000;62,00000
 412,51;  476,000;  376,500;    0,000;99,50000
 412,85;  458,000;  396,500;    0,000;61,50000
 413,18;  456,000;  422,500;    0,000;33,50000
 413,52;  517,500;  405,000;    0,000;112,50000
 413,85;  498,000;  368,000;    0,000;130,00000
 414,19;  454,000;  449,000;    0,000; 5,00000
 414,53;  439,000;  374,000;    0,000;65,00000
 414,86;  527,500;  456,000;    0,000;71,50000
 415,20;  471,500;  422,500;    0,000;49,00000
 415,53;  476,500;  422,000;    0,000;54,50000
 415,87;  492,500;  439,000;    0,000;53,50000
 416,20;  487,000;  413,500;    0,000;73,50000
 416,54;  462,500;  424,000;    0,000;38,50000
 416,87;  453,500;  442,000;    0,000;11,50000
 417,21;  511,000;  446,000;    0,000;65,00000
 417,54;  470,000;  417,500;    0,000;52,50000
 417,88;  464,500;  390,500;    0,000;74,00000
 418,21;  454,000;  381,500;    0,000;72,50000
 418,55;  471,500;  406,500;    0,000;65,00000
 418,88;  509,500;  418,500;    0,000;91,00000
 419,22;  475,500;  433,500;    0,000;42,00000
 419,55;  468,000;  471,000;    0,000;-3,00000
 419,89;  482,500;  423,500;    0,000;59,00000
 420,22;  473,500;  412,000;    0,000;61,50000
 420,55;  433,500;  426,000;    0,000; 7,50000
 420,89;  459,500;  435,500;    0,000;24,00000
 421,22;  434,000;  428,500;    0,000; 5,50000
 421,56;  390,000;  410,500;    0,000;-20,50000
 421,89;  469,500;  409,000;    0,000;60,50000
 422,23;  474,500;  420,000;    0,000;54,50000
 422,56;  492,500;  412,500;    0,000;80,00000
 422,90;  458,500;  416,000;    0,000;42,50000
 423,23;  459,000;  413,000;    0,000;46,00000
 423,57;  434,500;  435,000;    0,000;-0,50000
 423,90;  476,000;  462,000;    0,000;14,00000
 424,24;  478,000;  471,000;    0,000; 7,00000
 424,57;  414,000;  426,500;    0,000;-12,50000
 424,91;  479,500;  426,500;    0,000;53,00000
 425,24;  417,000;  465,500;    0,000;-48,50000
 425,58;  463,000;  420,500;    0,000;42,50000
 425,91;  444,500;  440,000;    0,000; 4,50000
 426,25;  453,000;  418,000;    0,000;35,00000
 426,58;  502,500;  385,000;    0,000;117,50000
 426,92;  465,500;  403,500;    0,000;62,00000
 427,25;  432,000;  407,000;    0,000;25,00000
 427,59;  434,000;  391,500;    0,000;42,50000
 427,92;  439,500;  463,000;    0,000;-23,50000
 428,25;  448,000;  417,000;    0,000;31,00000
 428,59;  488,500;  422,500;    0,000;66,00000
 428,92;  465,500;  422,500;    0,000;43,00000
 429,26;  479,000;  429,500;    0,000;49,50000
 429,59;  471,500;  396,500;    0,000;75,00000
 429,93;  446,500;  432,000;    0,000;14,50000
 430,26;  475,000;  417,000;    0,000;58,00000
 430,60;  491,500;  399,000;    0,000;92,50000
 430,93;  463,000;  395,500;    0,000;67,50000
 431,27;  458,500;  432,000;    0,000;26,50000
 431,60;  475,000;  432,000;    0,000;43,00000
 431,93;  458,500;  429,500;    0,000;29,00000
 432,27;  475,500;  469,500;    0,000; 6,00000
 432,60;  485,000;  397,500;    0,000;87,50000
 432,94;  449,000;  433,000;    0,000;16,00000
 433,27;  563,000;  433,500;    0,000;129,50000
 433,61;  432,000;  431,500;    0,000; 0,50000
 433,94;  480,500;  412,500;    0,000;68,00000
 434,28;  476,000;  430,500;    0,000;45,50000
 434,61;  495,000;  397,000;    0,000;98,00000
 434,94;  478,500;  429,500;    0,000;49,00000
 435,28;  477,000;  344,500;    0,000;132,50000
 435,61;  424,000;  386,000;    0,000;38,00000
 435,95;  492,500;  408,000;    0,000;84,50000
 436,28;  460,000;  425,500;    0,000;34,50000
 436,62;  421,000;  405,500;    0,000;15,50000
 436,95;  468,000;  446,000;    0,000;22,00000
 437,28;  476,000;  374,500;    0,000;101,50000
 437,62;  514,000;  406,500;    0,000;107,50000
 437,95;  459,000;  437,500;    0,000;21,50000
 438,29;  458,500;  431,500;    0,000;27,00000
 438,62;  471,500;  405,000;    0,000;66,50000
 438,96;  477,500;  481,000;    0,000;-3,50000
 439,29;  476,500;  438,000;    0,000;38,50000
 439,62;  469,000;  427,500;    0,000;41,50000
 439,96;  442,000;  372,500;    0,000;69,50000
 440,29;  476,500;  425,500;    0,000;51,00000
 440,63;  450,500;  444,000;    0,000; 6,50000
 440,96;  433,000;  451,000;    0,000;-18,00000
 441,30;  472,500;  460,500;    0,000;12,00000
 441,63;  483,000;  461,000;    0,000;22,00000
 441,96;  453,000;  430,500;    0,000;22,50000
 442,30;  499,000;  391,000;    0,000;108,00000
 442,63;  469,000;  457,000;    0,000;12,00000
 442,97;  459,000;  441,000;    0,000;18,00000
 443,30;  470,000;  376,500;    0,000;93,50000
 443,63;  447,000;  425,000;    0,000;22,00000
 443,97;  441,000;  438,500;    0,000; 2,50000
 444,30;  445,500;  448,000;    0,000;-2,50000
 444,64;  492,000;  473,000;    0,000;19,00000
 444,97;  469,000;  418,000;    0,000;51,00000
 445,31;  475,000;  429,500;    0,000;45,50000
 445,64;  481,500;  361,000;    0,000;120,50000
 445,97;  396,500;  439,500;    0,000;-43,00000
 446,31;  431,500;  449,500;    0,000;-18,00000
 446,64;  455,000;  419,500;    0,000;35,50000
 446,98;  486,500;  448,500;    0,000;38,00000
 447,31;  439,500;  412,500;    0,000;27,00000
 447,64;  462,000;  477,500;    0,000;-15,50000
 447,98;  497,500;  431,500;    0,000;66,00000
 448,31;  463,000;  360,500;    0,000;102,50000
 448,64;  470,000;  427,000;    0,000;43,00000
 448,98;  440,500;  403,000;    0,000;37,50000
 449,31;  444,000;  418,500;    0,000;25,50000
 449,65;  476,500;  457,500;    0,000;19,00000
 449,98;  440,000;  456,000;    0,000;-16,00000
 450,31;  456,000;  464,500;    0,000;-8,50000
 450,65;  473,000;  393,500;    0,000;79,50000
 450,98;  426,000;  436,000;    0,000;-10,00000
 451,32;  508,000;  430,500;    0,000;77,50000
 451,65;  471,500;  407,500;    0,000;64,00000
 451,98;  499,000;  446,000;    0,000;53,00000
 452,32;  502,000;  441,500;    0,000;60,50000
 452,65;  498,500;  424,500;    0,000;74,00000
 452,98;  466,500;  400,000;    0,000;66,50000
 453,32;  474,500;  400,500;    0,000;74,00000
 453,65;  488,500;  417,000;    0,000;71,50000
 453,99;  497,500;  402,500;    0,000;95,00000
 454,32;  471,000;  460,000;    0,000;11,00000
 454,65;  485,000;  382,000;    0,000;103,00000
 454,99;  503,000;  437,000;    0,000;66,00000
 455,32;  515,000;  435,000;    0,000;80,00000
 455,65;  447,500;  434,000;    0,000;13,50000
 455,99;  470,000;  402,500;    0,000;67,50000
 456,32;  470,000;  464,500;    0,000; 5,50000
 456,66;  507,000;  420,000;    0,000;87,00000
 456,99;  486,500;  432,500;    0,000;54,00000
 457,32;  443,500;  413,000;    0,000;30,50000
 457,66;  472,000;  406,000;    0,000;66,00000
 457,99;  464,500;  374,000;    0,000;90,50000
 458,32;  500,000;  418,000;    0,000;82,00000
 458,66;  458,000;  433,000;    0,000;25,00000
 458,99;  445,500;  375,000;    0,000;70,50000
 459,32;  467,000;  452,000;    0,000;15,00000
 459,66;  456,000;  429,000;    0,000;27,00000
 459,99;  419,000;  448,000;    0,000;-29,00000
 460,32;  409,500;  506,000;    0,000;-96,50000
 460,66;  481,500;  407,000;    0,000;74,50000
 460,99;  483,000;  434,500;    0,000;48,50000
 461,33;  499,000;  418,500;    0,000;80,50000
 461,66;  444,500;  417,500;    0,000;27,00000
 461,99;  488,500;  453,000;    0,000;35,50000
 462,33;  469,500;  478,500;    0,000;-9,00000
 462,66;  442,000;  451,000;    0,000;-9,00000
 462,99;  483,500;  452,000;    0,000;31,50000
 463,33;  445,000;  414,500;    0,000;30,50000
 463,66;  449,000;  397,500;    0,000;51,50000
 463,99;  435,500;  394,000;    0,000;41,50000
 464,33;  454,500;  404,000;    0,000;50,50000
 464,66;  484,500;  414,500;    0,000;70,00000
 464,99;  489,000;  432,000;    0,000;57,00000
 465,33;  487,000;  372,500;    0,000;114,50000
 465,66;  449,500;  421,000;    0,000;28,50000
 465,99;  484,000;  399,000;    0,000;85,00000
 466,33;  463,000;  399,000;    0,000;64,00000
 466,66;  509,000;  394,000;    0,000;115,00000
 466,99;  460,000;  420,000;    0,000;40,00000
 467,33;  420,500;  403,000;    0,000;17,50000
 467,66;  497,500;  408,000;    0,000;89,50000
 467,99;  495,500;  416,000;    0,000;79,50000
 468,33;  454,000;  455,500;    0,000;-1,50000
 468,66;  506,500;  408,500;    0,000;98,00000
 468,99;  467,000;  442,500;    0,000;24,50000
 469,33;  402,500;  413,500;    0,000;-11,00000
 469,66;  432,500;  435,000;    0,000;-2,50000
 469,99;  491,500;  439,500;    0,000;52,00000
 470,32;  453,000;  411,000;    0,000;42,00000
 470,66;  419,500;  373,000;    0,000;46,50000
 470,99;  435,000;  425,500;    0,000; 9,50000
 471,32;  460,000;  426,000;    0,000;34,00000
 471,66;  460,500;  444,500;    0,000;16,00000
 471,99;  436,500;  454,000;    0,000;-17,50000
 472,32;  493,500;  400,000;    0,000;93,50000
 472,66;  442,500;  402,500;    0,000;40,00000
 472,99;  430,000;  414,500;    0,000;15,50000
 473,32;  485,000;  399,000;    0,000;86,00000
 473,66;  458,000;  388,500;    0,000;69,50000
 473,99;  433,500;  399,000;    0,000;34,50000
 474,32;  490,000;  435,000;    0,000;55,00000
 474,65;  467,500;  390,000;    0,000;77,50000
 474,99;  449,500;  384,000;    0,000;65,50000
 475,32;  464,500;  412,000;    0,000;52,50000
 475,65;  499,500;  434,500;    0,000;65,00000
 475,99;  472,000;  437,500;    0,000;34,50000
 476,32;  464,500;  434,500;    0,000;30,00000
 476,65;  473,500;  459,000;    0,000;14,50000
 476,99;  455,000;  442,500;    0,000;12,50000
 477,32;  492,500;  422,000;    0,000;70,50000
 477,65;  489,500;  449,500;    0,000;40,00000
 477,98;  448,000;  420,000;    0,000;28,00000
 478,32;  460,500;  389,000;    0,000;71,50000
 478,65;  473,000;  445,000;    0,000;28,00000
 478,98;  428,000;  444,500;    0,000;-16,50000
 479,32;  467,500;  436,500;    0,000;31,00000
 479,65;  475,500;  442,000;    0,000;33,50000
 479,98;  458,000;  461,000;    0,000;-3,00000
 480,31;  441,500;  447,500;    0,000;-6,00000
 480,65;  474,500;  403,000;    0,000;71,50000
 480,98;  443,500;  467,000;    0,000;-23,50000
 481,31;  486,500;  445,500;    0,000;41,00000
 481,65;  433,000;  448,000;    0,000;-15,00000
 481,98;  468,500;  401,500;    0,000;67,00000
 482,31;  459,000;  489,000;    0,000;-30,00000
 482,64;  422,500;  433,000;    0,000;-10,50000
 482,98;  405,000;  431,500;    0,000;-26,50000
 483,31;  438,500;  455,500;    0,000;-17,00000
 483,64;  425,000;  445,500;    0,000;-20,50000
 483,97;  470,000;  444,500;    0,000;25,50000
 484,31;  489,000;  405,000;    0,000;84,00000
 484,64;  485,000;  413,500;    0,000;71,50000
 484,97;  475,000;  397,500;    0,000;77,50000
 485,30;  499,000;  418,500;    0,000;80,50000
 485,64;  464,000;  425,000;    0,000;39,00000
 485,97;  460,500;  430,500;    0,000;30,00000
 486,30;  484,000;  402,500;    0,000;81,50000
 486,64;  429,000;  414,500;    0,000;14,50000
 486,97;  472,500;  411,000;    0,000;61,50000
 487,30;  472,000;  426,500;    0,000;45,50000
 487,63;  475,000;  416,000;    0,000;59,00000
 487,97;  457,000;  443,000;    0,000;14,00000
 488,30;  467,500;  440,000;    0,000;27,50000
 488,63;  474,000;  407,000;    0,000;67,00000
 488,96;  515,500;  445,000;    0,000;70,50000
 489,30;  451,000;  423,500;    0,000;27,50000
 489,63;  436,500;  438,500;    0,000;-2,00000
 489,96;  445,500;  425,000;    0,000;20,50000
 490,29;  432,500;  437,000;    0,000;-4,50000
 490,63;  450,500;  408,500;    0,000;42,00000
 490,96;  466,500;  423,500;    0,000;43,00000
 491,29;  431,000;  409,000;    0,000;22,00000
 491,62;  523,500;  442,500;    0,000;81,00000
 491,95;  454,000;  464,000;    0,000;-10,00000
 492,29;  435,000;  461,000;    0,000;-26,00000
 492,62;  482,000;  455,500;    0,000;26,50000
 492,95;  471,000;  414,500;    0,000;56,50000
 493,28;  486,500;  406,000;    0,000;80,50000
 493,62;  475,000;  436,000;    0,000;39,00000
 493,95;  481,000;  425,500;    0,000;55,50000
 494,28;  468,000;  412,500;    0,000;55,50000
 494,61;  454,000;  413,000;    0,000;41,00000
 494,95;  458,000;  453,500;    0,000; 4,50000
 495,28;  453,500;  374,000;    0,000;79,50000
 495,61;  504,500;  412,500;    0,000;92,00000
 495,94;  477,000;  413,000;    0,000;64,00000
 496,27;  454,500;  420,000;    0,000;34,50000
 496,61;  472,500;  447,500;    0,000;25,00000
 496,94;  437,500;  424,500;    0,000;13,00000
 497,27;  445,000;  398,000;    0,000;47,00000
 497,60;  429,500;  427,500;    0,000; 2,00000
 497,94;  463,000;  398,000;    0,000;65,00000
 498,27;  472,000;  484,500;    0,000;-12,50000
 498,60;  502,500;  430,000;    0,000;72,50000
 498,93;  446,000;  438,000;    0,000; 8,00000
 499,26;  482,500;  447,500;    0,000;35,00000
 499,60;  456,000;  422,000;    0,000;34,00000
 499,93;  485,500;  427,000;    0,000;58,50000
 500,26;  459,000;  402,500;    0,000;56,50000
 500,59;  440,500;  437,000;    0,000; 3,50000
 500,92;  455,000;  413,500;    0,000;41,50000
 501,26;  482,000;  472,000;    0,000;10,00000
 501,59;  444,500;  391,500;    0,000;53,00000
 501,92;  469,000;  467,000;    0,000; 2,00000
 502,25;  459,000;  485,000;    0,000;-26,00000
 502,58;  417,500;  417,500;    0,000; 0,00000
 502,92;  473,500;  426,500;    0,000;47,00000
 503,25;  491,000;  436,500;    0,000;54,50000
 503,58;  431,000;  418,000;    0,000;13,00000
 503,91;  457,000;  395,000;    0,000;62,00000
 504,24;  470,500;  397,500;    0,000;73,00000
 504,58;  454,500;  448,000;    0,000; 6,50000
 504,91;  494,000;  405,000;    0,000;89,00000
 505,24;  525,500;  412,500;    0,000;113,00000
 505,57;  529,000;  414,500;    0,000;114,50000
 505,90;  510,000;  440,500;    0,000;69,50000
 506,24;  435,000;  432,000;    0,000; 3,00000
 506,57;  443,500;  399,000;    0,000;44,50000
 506,90;  472,500;  420,000;    0,000;52,50000
 507,23;  436,500;  403,000;    0,000;33,50000
 507,56;  452,500;  414,000;    0,000;38,50000
 507,90;  476,500;  429,000;    0,000;47,50000
 508,23;  484,500;  402,500;    0,000;82,00000
 508,56;  445,000;  461,500;    0,000;-16,50000
 508,89;  457,000;  457,500;    0,000;-0,50000
 509,22;  482,000;  455,500;    0,000;26,50000
 509,55;  499,000;  429,000;    0,000;70,00000
 509,89;  444,000;  462,000;    0,000;-18,00000
 510,22;  467,500;  412,500;    0,000;55,00000
 510,55;  474,000;  462,500;    0,000;11,50000
 510,88;  462,500;  456,500;    0,000; 6,00000
 511,21;  445,500;  407,500;    0,000;38,00000
 511,54;  486,500;  452,000;    0,000;34,50000
 511,88;  483,500;  424,000;    0,000;59,50000
 512,21;  485,000;  428,000;    0,000;57,00000
 512,54;  442,000;  433,000;    0,000; 9,00000
 512,87;  477,500;  458,500;    0,000;19,00000
 513,20;  484,000;  404,500;    0,000;79,50000
 513,53;  482,500;  378,500;    0,000;104,00000
 513,87;  458,500;  415,500;    0,000;43,00000
 514,20;  493,500;  431,500;    0,000;62,00000
 514,53;  477,500;  407,000;    0,000;70,50000
 514,86;  463,000;  421,000;    0,000;42,00000
 515,19;  493,000;  397,000;    0,000;96,00000
 515,52;  439,000;  443,500;    0,000;-4,50000
 515,85;  437,500;  440,500;    0,000;-3,00000
 516,19;  434,500;  429,500;    0,000; 5,00000
 516,52;  465,500;  408,000;    0,000;57,50000
 516,85;  460,000;  400,500;    0,000;59,50000
 517,18;  455,000;  395,500;    0,000;59,50000
 517,51;  414,500;  407,000;    0,000; 7,50000
 517,84;  497,000;  447,500;    0,000;49,50000
 518,17;  497,500;  402,500;    0,000;95,00000
 518,51;  448,000;  438,000;    0,000;10,00000
 518,84;  506,500;  419,500;    0,000;87,00000
 519,17;  458,000;  373,500;    0,000;84,50000
 519,50;  496,500;  444,500;    0,000;52,00000
 519,83;  491,500;  483,000;    0,000; 8,50000
 520,16;  466,000;  445,500;    0,000;20,50000
 520,49;  445,000;  413,500;    0,000;31,50000
 520,83;  505,500;  423,500;    0,000;82,00000
 521,16;  449,000;  439,000;    0,000;10,00000
 521,49;  493,500;  399,000;    0,000;94,50000
 521,82;  474,000;  435,500;    0,000;38,50000
 522,15;  465,500;  427,500;    0,000;38,00000
 522,48;  449,500;  418,500;    0,000;31,00000
 522,81;  457,500;  456,500;    0,000; 1,00000
 523,14;  442,500;  398,500;    0,000;44,00000
 523,48;  492,500;  406,500;    0,000;86,00000
 523,81;  471,500;  460,500;    0,000;11,00000
 524,14;  489,500;  441,000;    0,000;48,50000
 524,47;  469,500;  389,000;    0,000;80,50000
 524,80;  487,000;  449,000;    0,000;38,00000
 525,13;  437,000;  389,000;    0,000;48,00000
 525,46;  430,500;  403,000;    0,000;27,50000
 525,79;  472,500;  415,000;    0,000;57,50000
 526,13;  479,500;  403,000;    0,000;76,50000
 526,46;  436,500;  426,000;    0,000;10,50000
 526,79;  464,500;  423,500;    0,000;41,00000
 527,12;  472,000;  415,500;    0,000;56,50000
 527,45;  518,000;  376,000;    0,000;142,00000
 527,78;  443,500;  413,000;    0,000;30,50000
 528,11;  494,000;  435,500;    0,000;58,50000
 528,44;  459,000;  426,500;    0,000;32,50000
 528,77;  444,500;  424,500;    0,000;20,00000
 529,10;  448,500;  440,000;    0,000; 8,50000
 529,44;  468,500;  450,500;    0,000;18,00000
 529,77;  487,000;  457,500;    0,000;29,50000
 530,10;  506,500;  430,000;    0,000;76,50000
 530,43;  461,000;  410,000;    0,000;51,00000
 530,76;  470,000;  438,000;    0,000;32,00000
 531,09;  460,000;  449,000;    0,000;11,00000
 531,42;  453,000;  424,500;    0,000;28,50000
 531,75;  504,000;  408,500;    0,000;95,50000
 532,08;  438,500;  468,500;    0,000;-30,00000
 532,41;  464,500;  414,000;    0,000;50,50000
 532,75;  463,000;  392,000;    0,000;71,00000
 533,08;  451,500;  420,000;    0,000;31,50000
 533,41;  446,500;  420,000;    0,000;26,50000
 533,74;  435,000;  377,000;    0,000;58,00000
 534,07;  485,000;  437,500;    0,000;47,50000
 534,40;  484,500;  381,500;    0,000;103,00000
 534,73;  459,500;  420,000;    0,000;39,50000
 535,06;  501,000;  436,500;    0,000;64,50000
 535,39;  478,000;  421,000;    0,000;57,00000
 535,72;  463,000;  422,500;    0,000;40,50000
 536,05;  459,000;  413,500;    0,000;45,50000
 536,38;  464,500;  415,500;    0,000;49,00000
 536,71;  455,500;  416,000;    0,000;39,50000
 537,05;  430,500;  404,000;    0,000;26,50000
 537,38;  443,000;  414,000;    0,000;29,00000
 537,71;  409,500;  447,500;    0,000;-38,00000
 538,04;  497,000;  409,500;    0,000;87,50000
 538,37;  490,500;  423,000;    0,000;67,50000
 538,70;  456,000;  419,500;    0,000;36,50000
 539,03;  506,000;  416,500;    0,000;89,50000
 539,36;  476,500;  452,500;    0,000;24,00000
 539,69;  475,500;  439,500;    0,000;36,00000
 540,02;  479,000;  451,500;    0,000;27,50000
 540,35;  482,000;  414,500;    0,000;67,50000
 540,68;  471,000;  436,000;    0,000;35,00000
 541,01;  464,000;  387,000;    0,000;77,00000
 541,34;  451,500;  433,500;    0,000;18,00000
 541,67;  475,000;  472,500;    0,000; 2,50000
 542,00;  427,500;  429,000;    0,000;-1,50000
 542,34;  466,000;  440,000;    0,000;26,00000
 542,67;  509,500;  445,500;    0,000;64,00000
 543,00;  499,500;  433,500;    0,000;66,00000
 543,33;  476,000;  436,000;    0,000;40,00000
 543,66;  475,500;  375,500;    0,000;100,00000
 543,99;  433,500;  444,500;    0,000;-11,00000
 544,32;  447,500;  424,500;    0,000;23,00000
 544,65;  428,500;  416,500;    0,000;12,00000
 544,98;  460,000;  417,500;    0,000;42,50000
 545,31;  455,500;  404,500;    0,000;51,00000
 545,64;  514,500;  389,000;    0,000;125,50000
 545,97;  469,500;  388,000;    0,000;81,50000
 546,30;  489,000;  424,000;    0,000;65,00000
 546,63;  477,000;  429,500;    0,000;47,50000
 546,96;  469,500;  420,000;    0,000;49,50000
 547,29;  497,000;  422,000;    0,000;75,00000
 547,62;  485,500;  411,000;    0,000;74,50000
 547,95;  443,500;  387,500;    0,000;56,00000
 548,28;  445,000;  424,500;    0,000;20,50000
 548,61;  476,500;  408,000;    0,000;68,50000
 548,94;  470,000;  432,500;    0,000;37,50000
 549,27;  478,500;  440,000;    0,000;38,50000
 549,60;  498,500;  390,500;    0,000;108,00000
 549,93;  475,500;  413,000;    0,000;62,50000
 550,26;  448,000;  406,500;    0,000;41,50000
 550,59;  446,000;  438,000;    0,000; 8,00000
 550,92;  451,000;  458,000;    0,000;-7,00000
 551,25;  464,000;  376,000;    0,000;88,00000
 551,58;  483,500;  459,500;    0,000;24,00000
 551,91;  475,000;  411,000;    0,000;64,00000
 552,24;  439,500;  432,000;    0,000; 7,50000
 552,57;  450,000;  419,000;    0,000;31,00000
 552,91;  497,000;  454,500;    0,000;42,50000
 553,24;  477,500;  449,500;    0,000;28,00000
 553,57;  470,500;  449,500;    0,000;21,00000
 553,90;  498,500;  429,500;    0,000;69,00000
 554,23;  464,000;  446,000;    0,000;18,00000
 554,56;  496,000;  464,000;    0,000;32,00000
 554,89;  505,500;  397,500;    0,000;108,00000
 555,22;  491,000;  399,500;    0,000;91,50000
 555,55;  438,000;  405,500;    0,000;32,50000
 555,88;  427,000;  429,000;    0,000;-2,00000
 556,21;  525,500;  419,000;    0,000;106,50000
 556,54;  463,500;  396,500;    0,000;67,00000
 556,87;  456,000;  399,500;    0,000;56,50000
 557,20;  443,500;  435,500;    0,000; 8,00000
 557,53;  454,500;  456,500;    0,000;-2,00000
 557,86;  447,500;  402,500;    0,000;45,00000
 558,19;  493,500;  437,000;    0,000;56,50000
 558,52;  444,000;  455,500;    0,000;-11,50000
 558,84;  458,500;  441,500;    0,000;17,00000
 559,17;  464,000;  425,000;    0,000;39,00000
 559,50;  487,500;  406,000;    0,000;81,50000
 559,83;  471,500;  419,500;    0,000;52,00000
 560,16;  470,000;  387,500;    0,000;82,50000
 560,49;  483,000;  392,500;    0,000;90,50000
 560,82;  404,500;  367,500;    0,000;37,00000
 561,15;  464,500;  391,000;    0,000;73,50000
 561,48;  467,500;  423,500;    0,000;44,00000
 561,81;  463,500;  437,500;    0,000;26,00000
 562,14;  430,000;  428,000;    0,000; 2,00000
 562,47;  451,000;  435,500;    0,000;15,50000
 562,80;  484,000;  445,500;    0,000;38,50000
 563,13;  478,500;  454,500;    0,000;24,00000
 563,46;  469,500;  442,500;    0,000;27,00000
 563,79;  478,500;  362,000;    0,000;116,50000
 564,12;  465,000;  396,500;    0,000;68,50000
 564,45;  473,000;  386,500;    0,000;86,50000
 564,78;  463,000;  415,000;    0,000;48,00000
 565,11;  443,500;  400,000;    0,000;43,50000
 565,44;  443,000;  434,500;    0,000; 8,50000
 565,77;  456,500;  404,000;    0,000;52,50000
 566,10;  459,000;  422,000;    0,000;37,00000
 566,43;  472,500;  462,000;    0,000;10,50000
 566,76;  485,500;  427,500;    0,000;58,00000
 567,09;  502,000;  447,000;    0,000;55,00000
 567,42;  454,000;  430,500;    0,000;23,50000
 567,75;  463,500;  424,500;    0,000;39,00000
 568,08;  419,000;  421,000;    0,000;-2,00000
 568,41;  497,500;  416,500;    0,000;81,00000
 568,74;  411,500;  452,000;    0,000;-40,50000
 569,07;  422,000;  399,000;    0,000;23,00000
 569,39;  485,500;  429,000;    0,000;56,50000
 569,72;  443,500;  398,000;    0,000;45,50000
 570,05;  463,500;  443,000;    0,000;20,50000
 570,38;  461,500;  448,500;    0,000;13,00000
 570,71;  427,500;  391,000;    0,000;36,50000
 571,04;  492,500;  446,500;    0,000;46,00000
 571,37;  453,500;  445,000;    0,000; 8,50000
 571,70;  449,500;  450,000;    0,000;-0,50000
 572,03;  489,500;  405,000;    0,000;84,50000
 572,36;  466,500;  419,500;    0,000;47,00000
 572,69;  472,000;  464,000;    0,000; 8,00000
 573,02;  417,500;  433,000;    0,000;-15,50000
 573,35;  428,500;  424,000;    0,000; 4,50000
 573,68;  444,500;  448,500;    0,000;-4,00000
 574,01;  456,000;  418,500;    0,000;37,50000
 574,34;  467,000;  433,000;    0,000;34,00000
 574,66;  488,500;  412,500;    0,000;76,00000
 574,99;  457,000;  467,000;    0,000;-10,00000
 575,32;  499,000;  382,000;    0,000;117,00000
 575,65;  471,500;  446,000;    0,000;25,50000
 575,98;  491,000;  393,500;    0,000;97,50000
 576,31;  505,000;  382,000;    0,000;123,00000
 576,64;  456,000;  437,500;    0,000;18,50000
 576,97;  500,000;  496,000;    0,000; 4,00000
 577,30;  472,500;  430,000;    0,000;42,50000
 577,63;  480,000;  471,500;    0,000; 8,50000
 577,96;  448,000;  427,000;    0,000;21,00000
 578,29;  429,000;  408,500;    0,000;20,50000
 578,61;  445,000;  478,500;    0,000;-33,50000
 578,94;  478,000;  433,000;    0,000;45,00000
 579,27;  459,000;  379,500;    0,000;79,50000
 579,60;  429,000;  435,500;    0,000;-6,50000
 579,93;  481,500;  378,000;    0,000;103,50000
 580,26;  475,000;  424,000;    0,000;51,00000
 580,59;  484,000;  453,500;    0,000;30,50000
 580,92;  436,500;  456,500;    0,000;-20,00000
 581,25;  450,500;  429,500;    0,000;21,00000
 581,58;  442,500;  443,000;    0,000;-0,50000
 581,91;  515,000;  407,000;    0,000;108,00000
 582,23;  473,000;  425,500;    0,000;47,50000
 582,56;  512,000;  407,000;    0,000;105,00000
 582,89;  465,000;  416,500;    0,000;48,50000
 583,22;  500,000;  406,500;    0,000;93,50000
 583,55;  438,000;  432,000;    0,000; 6,00000
 583,88;  467,500;  391,500;    0,000;76,00000
 584,21;  469,000;  420,500;    0,000;48,50000
 584,54;  428,500;  422,000;    0,000; 6,50000
 584,87;  442,000;  412,000;    0,000;30,00000
 585,19;  480,000;  461,000;    0,000;19,00000
 585,52;  479,500;  396,500;    0,000;83,00000
 585,85;  459,000;  444,000;    0,000;15,00000
 586,18;  472,000;  434,000;    0,000;38,00000
 586,51;  498,000;  396,000;    0,000;102,00000
 586,84;  470,000;  417,000;    0,000;53,00000
 587,17;  493,500;  435,000;    0,000;58,50000
 587,50;  450,000;  435,500;    0,000;14,50000
 587,83;  465,000;  431,000;    0,000;34,00000
 588,15;  479,000;  476,500;    0,000; 2,50000
 588,48;  440,500;  441,500;    0,000;-1,00000
 588,81;  438,500;  412,500;    0,000;26,00000
 589,14;  492,500;  444,500;    0,000;48,00000
 589,47;  465,500;  428,000;    0,000;37,50000
 589,80;  516,500;  402,000;    0,000;114,50000
 590,13;  474,000;  460,500;    0,000;13,50000
 590,45;  471,000;  405,000;    0,000;66,00000
 590,78;  452,000;  407,000;    0,000;45,00000
 591,11;  482,500;  413,000;    0,000;69,50000
 591,44;  459,000;  415,000;    0,000;44,00000
 591,77;  462,500;  428,000;    0,000;34,50000
 592,10;  467,500;  421,500;    0,000;46,00000
 592,43;  447,000;  404,500;    0,000;42,50000
 592,75;  474,000;  436,500;    0,000;37,50000
 593,08;  455,000;  398,000;    0,000;57,00000
 593,41;  450,000;  413,000;    0,000;37,00000
 593,74;  463,500;  399,500;    0,000;64,00000
 594,07;  459,000;  433,000;    0,000;26,00000
 594,40;  473,500;  475,000;    0,000;-1,50000
 594,73;  454,000;  420,500;    0,000;33,50000
 595,05;  443,000;  374,000;    0,000;69,00000
 595,38;  426,500;  401,500;    0,000;25,00000
 595,71;  457,500;  425,000;    0,000;32,50000
 596,04;  427,500;  462,500;    0,000;-35,00000
 596,37;  463,500;  417,000;    0,000;46,50000
 596,70;  446,000;  427,500;    0,000;18,50000
 597,02;  480,000;  404,500;    0,000;75,50000
 597,35;  431,500;  417,000;    0,000;14,50000
 597,68;  490,500;  481,000;    0,000; 9,50000
 598,01;  530,500;  431,000;    0,000;99,50000
 598,34;  433,500;  403,500;    0,000;30,00000
 598,67;  518,000;  402,000;    0,000;116,00000
 599,00;  514,500;  437,000;    0,000;77,50000
 599,32;  463,000;  452,500;    0,000;10,50000
 599,65;  420,000;  420,500;    0,000;-0,50000
 599,98;  483,500;  436,500;    0,000;47,00000
 600,31;  433,500;  424,500;    0,000; 9,00000
 600,64;  445,000;  472,500;    0,000;-27,50000
 600,96;  448,500;  424,000;    0,000;24,50000
 601,29;  460,000;  403,000;    0,000;57,00000
 601,62;  447,500;  390,000;    0,000;57,50000
 601,95;  472,500;  380,000;    0,000;92,50000
 602,28;  462,000;  439,000;    0,000;23,00000
 602,61;  541,000;  384,500;    0,000;156,50000
 602,93;  486,500;  426,500;    0,000;60,00000
 603,26;  449,500;  463,500;    0,000;-14,00000
 603,59;  490,000;  423,500;    0,000;66,50000
 603,92;  462,500;  441,500;    0,000;21,00000
 604,25;  429,500;  407,000;    0,000;22,50000
 604,57;  447,000;  462,000;    0,000;-15,00000
 604,90;  469,500;  416,500;    0,000;53,00000
 605,23;  484,500;  475,500;    0,000; 9,00000
 605,56;  462,000;  429,500;    0,000;32,50000
 605,89;  441,500;  441,000;    0,000; 0,50000
 606,21;  449,000;  434,000;    0,000;15,00000
 606,54;  476,500;  456,000;    0,000;20,50000
 606,87;  474,000;  437,500;    0,000;36,50000
 607,20;  460,000;  403,500;    0,000;56,50000
 607,53;  474,500;  455,000;    0,000;19,50000
 607,85;  489,000;  424,000;    0,000;65,00000
 608,18;  434,000;  431,500;    0,000; 2,50000
 608,51;  468,500;  387,500;    0,000;81,00000
 608,84;  447,500;  403,500;    0,000;44,00000
 609,17;  476,000;  436,000;    0,000;40,00000
 609,49;  436,000;  406,000;    0,000;30,00000
 609,82;  444,500;  433,500;    0,000;11,00000
 610,15;  465,000;  421,500;    0,000;43,50000
 610,48;  430,500;  410,500;    0,000;20,00000
 610,81;  461,000;  410,000;    0,000;51,00000
 611,13;  482,000;  423,000;    0,000;59,00000
 611,46;  465,000;  401,500;    0,000;63,50000
 611,79;  415,000;  395,500;    0,000;19,50000
 612,12;  463,000;  444,000;    0,000;19,00000
 612,44;  457,000;  405,500;    0,000;51,50000
 612,77;  445,000;  391,500;    0,000;53,50000
 613,10;  504,000;  438,500;    0,000;65,50000
 613,43;  428,500;  421,500;    0,000; 7,00000
 613,76;  476,500;  436,500;    0,000;40,00000
 614,08;  440,500;  423,500;    0,000;17,00000
 614,41;  497,000;  405,500;    0,000;91,50000
 614,74;  476,000;  433,000;    0,000;43,00000
 615,07;  459,000;  379,500;    0,000;79,50000
 615,39;  464,000;  383,000;    0,000;81,00000
 615,72;  507,000;  409,500;    0,000;97,50000
 616,05;  459,500;  429,500;    0,000;30,00000
 616,38;  488,000;  443,500;    0,000;44,50000
 616,70;  476,500;  411,500;    0,000;65,00000
 617,03;  482,000;  419,000;    0,000;63,00000
 617,36;  475,000;  445,500;    0,000;29,50000
 617,69;  442,500;  416,500;    0,000;26,00000
 618,02;  428,500;  400,500;    0,000;28,00000
 618,34;  477,000;  398,500;    0,000;78,50000
 618,67;  462,500;  440,000;    0,000;22,50000
 619,00;  466,000;  378,500;    0,000;87,50000
 619,33;  469,000;  411,000;    0,000;58,00000
 619,65;  482,000;  416,000;    0,000;66,00000
 619,98;  504,000;  444,000;    0,000;60,00000
 620,31;  431,000;  437,500;    0,000;-6,50000
 620,64;  435,500;  411,000;    0,000;24,50000
 620,96;  468,500;  414,000;    0,000;54,50000
 621,29;  420,500;  407,000;    0,000;13,50000
 621,62;  479,500;  437,000;    0,000;42,50000
 621,94;  444,500;  447,500;    0,000;-3,00000
 622,27;  437,500;  433,000;    0,000; 4,50000
 622,60;  483,000;  437,500;    0,000;45,50000
 622,93;  413,000;  424,500;    0,000;-11,50000
 623,25;  482,500;  416,000;    0,000;66,50000
 623,58;  494,000;  437,500;    0,000;56,50000
 623,91;  460,500;  445,000;    0,000;15,50000
 624,24;  480,500;  457,500;    0,000;23,00000
 624,56;  477,000;  387,000;    0,000;90,00000
 624,89;  470,000;  428,000;    0,000;42,00000
 625,22;  391,500;  438,500;    0,000;-47,00000
 625,55;  446,000;  461,000;    0,000;-15,00000
 625,87;  475,000;  395,500;    0,000;79,50000
 626,20;  505,500;  434,000;    0,000;71,50000
 626,53;  508,000;  414,500;    0,000;93,50000
 626,85;  475,500;  376,000;    0,000;99,50000
 627,18;  452,000;  398,500;    0,000;53,50000
 627,51;  492,000;  457,500;    0,000;34,50000
 627,84;  522,500;  443,000;    0,000;79,50000
 628,16;  473,500;  378,000;    0,000;95,50000
 628,49;  435,500;  420,500;    0,000;15,00000
 628,82;  464,000;  442,000;    0,000;22,00000
 629,14;  499,000;  438,500;    0,000;60,50000
 629,47;  489,000;  478,000;    0,000;11,00000
 629,80;  456,500;  395,500;    0,000;61,00000
 630,13;  454,500;  448,000;    0,000; 6,50000
 630,45;  461,000;  451,000;    0,000;10,00000
 630,78;  459,000;  483,000;    0,000;-24,00000
 631,11;  466,500;  424,500;    0,000;42,00000
 631,43;  475,000;  423,500;    0,000;51,50000
 631,76;  453,000;  409,500;    0,000;43,50000
 632,09;  480,500;  399,000;    0,000;81,50000
 632,41;  476,000;  435,000;    0,000;41,00000
 632,74;  477,000;  434,000;    0,000;43,00000
 633,07;  457,000;  436,500;    0,000;20,50000
 633,40;  474,000;  464,500;    0,000; 9,50000
 633,72;  472,000;  441,500;    0,000;30,50000
 634,05;  465,500;  452,500;    0,000;13,00000
 634,38;  503,500;  434,500;    0,000;69,00000
 634,70;  440,000;  419,000;    0,000;21,00000
 635,03;  449,000;  467,000;    0,000;-18,00000
 635,36;  467,500;  435,500;    0,000;32,00000
 635,68;  489,500;  446,000;    0,000;43,50000
 636,01;  472,500;  429,000;    0,000;43,50000
 636,34;  453,500;  413,500;    0,000;40,00000
 636,66;  454,500;  441,500;    0,000;13,00000
 636,99;  516,500;  407,500;    0,000;109,00000
 637,32;  442,500;  475,500;    0,000;-33,00000
 637,64;  468,000;  425,000;    0,000;43,00000
 637,97;  454,500;  407,500;    0,000;47,00000
 638,30;  486,000;  393,500;    0,000;92,50000
 638,62;  474,000;  403,500;    0,000;70,50000
 638,95;  470,000;  417,500;    0,000;52,50000
 639,28;  457,000;  417,500;    0,000;39,50000
 639,60;  481,000;  382,500;    0,000;98,50000
 639,93;  474,000;  426,500;    0,000;47,50000
 640,26;  470,500;  391,500;    0,000;79,00000
 640,58;  448,000;  449,500;    0,000;-1,50000
 640,91;  479,000;  474,500;    0,000; 4,50000
 641,24;  469,500;  406,000;    0,000;63,50000
 641,56;  457,500;  373,000;    0,000;84,50000
 641,89;  418,000;  416,500;    0,000; 1,50000
 642,22;  442,500;  433,500;    0,000; 9,00000
 642,54;  482,000;  400,000;    0,000;82,00000
 642,87;  502,500;  391,000;    0,000;111,50000
 643,20;  495,500;  432,000;    0,000;63,50000
 643,52;  467,000;  427,000;    0,000;40,00000
 643,85;  487,000;  396,500;    0,000;90,50000
 644,18;  449,000;  381,500;    0,000;67,50000
 644,50;  460,000;  464,000;    0,000;-4,00000
 644,83;  490,500;  444,500;    0,000;46,00000
 645,16;  477,000;  431,000;    0,000;46,00000
 645,48;  468,500;  393,000;    0,000;75,50000
 645,81;  482,000;  430,500;    0,000;51,50000
 646,13;  474,500;  375,000;    0,000;99,50000
 646,46;  489,000;  449,000;    0,000;40,00000
 646,79;  457,000;  366,000;    0,000;91,00000
 647,11;  458,000;  411,000;    0,000;47,00000
 647,44;  480,500;  423,000;    0,000;57,50000
 647,77;  489,000;  445,000;    0,000;44,00000
 648,09;  435,000;  404,000;    0,000;31,00000
 648,42;  521,000;  485,500;    0,000;35,50000
 648,75;  454,500;  433,500;    0,000;21,00000
 649,07;  485,000;  431,000;    0,000;54,00000
 649,40;  452,000;  421,500;    0,000;30,50000
 649,72;  475,500;  441,000;    0,000;34,50000
 650,05;  470,500;  454,500;    0,000;16,00000
 650,38;  492,000;  430,500;    0,000;61,50000
 650,70;  453,000;  459,000;    0,000;-6,00000
 651,03;  425,500;  438,500;    0,000;-13,00000
 651,36;  499,500;  428,500;    0,000;71,00000
 651,68;  453,000;  403,000;    0,000;50,00000
 652,01;  455,500;  419,000;    0,000;36,50000
 652,33;  446,000;  449,500;    0,000;-3,50000
 652,66;  477,500;  423,000;    0,000;54,50000
 652,99;  445,500;  413,000;    0,000;32,50000
 653,31;  422,500;  412,000;    0,000;10,50000
 653,64;  502,500;  490,000;    0,000;12,50000
 653,96;  479,000;  435,500;    0,000;43,50000
 654,29;  455,500;  450,000;    0,000; 5,50000
 654,62;  468,500;  498,000;    0,000;-29,50000
 654,94;  412,000;  457,000;    0,000;-45,00000
 655,27;  489,000;  411,000;    0,000;78,00000
 655,59;  447,500;  413,500;    0,000;34,00000
 655,92;  474,500;  390,500;    0,000;84,00000
 656,25;  444,000;  411,000;    0,000;33,00000
 656,57;  465,000;  426,000;    0,000;39,00000
 656,90;  472,000;  388,500;    0,000;83,50000
 657,22;  478,500;  372,500;    0,000;106,00000
 657,55;  490,000;  426,000;    0,000;64,00000
 657,88;  479,500;  410,000;    0,000;69,50000
 658,20;  457,000;  409,000;    0,000;48,00000
 658,53;  482,500;  410,000;    0,000;72,50000
 658,85;  420,000;  418,000;    0,000; 2,00000
 659,18;  457,000;  420,500;    0,000;36,50000
 659,51;  465,500;  449,000;    0,000;16,50000
 659,83;  498,500;  440,000;    0,000;58,50000
 660,16;  447,000;  404,000;    0,000;43,00000
 660,48;  478,500;  441,500;    0,000;37,00000
 660,81;  437,000;  413,000;    0,000;24,00000
 661,14;  446,500;  427,500;    0,000;19,00000
 661,46;  447,000;  460,000;    0,000;-13,00000
 661,79;  452,000;  446,000;    0,000; 6,00000
 662,11;  475,000;  423,500;    0,000;51,50000
 662,44;  473,500;  407,000;    0,000;66,50000
 662,76;  392,000;  411,500;    0,000;-19,50000
 663,09;  456,500;  452,500;    0,000; 4,00000
 663,42;  433,000;  406,000;    0,000;27,00000
 663,74;  463,500;  413,500;    0,000;50,00000
 664,07;  491,500;  434,000;    0,000;57,50000
 664,39;  495,500;  408,500;    0,000;87,00000
 664,72;  479,000;  376,000;    0,000;103,00000
 665,04;  444,500;  422,500;    0,000;22,00000
 665,37;  477,500;  488,500;    0,000;-11,00000
 665,69;  502,500;  442,000;    0,000;60,50000
 666,02;  426,500;  426,000;    0,000; 0,50000
 666,35;  440,000;  440,500;    0,000;-0,50000
 666,67;  462,000;  469,000;    0,000;-7,00000
 667,00;  455,500;  416,000;    0,000;39,50000
 667,32;  466,000;  362,500;    0,000;103,50000
 667,65;  491,000;  418,500;    0,000;72,50000
 667,97;  429,500;  387,000;    0,000;42,50000
 668,30;  474,500;  469,500;    0,000; 5,00000
 668,62;  495,500;  424,500;    0,000;71,00000
 668,95;  457,000;  447,000;    0,000;10,00000
 669,28;  505,500;  438,000;    0,000;67,50000
 669,60;  478,500;  425,000;    0,000;53,50000
 669,93;  484,000;  415,500;    0,000;68,50000
 670,25;  493,500;  426,000;    0,000;67,50000
 670,58;  472,500;  427,000;    0,000;45,50000
 670,90;  452,500;  494,000;    0,000;-41,50000
 671,23;  454,000;  402,500;    0,000;51,50000
 671,55;  464,500;  477,500;    0,000;-13,00000
 671,88;  501,500;  396,500;    0,000;105,00000
 672,20;  492,000;  428,500;    0,000;63,50000
 672,53;  435,000;  426,000;    0,000; 9,00000
 672,85;  464,500;  442,000;    0,000;22,50000
 673,18;  472,000;  465,500;    0,000; 6,50000
 673,50;  450,500;  417,000;    0,000;33,50000
 673,83;  413,500;  377,000;    0,000;36,50000
 674,16;  443,000;  368,000;    0,000;75,00000
 674,48;  450,000;  457,000;    0,000;-7,00000
 674,81;  445,000;  433,500;    0,000;11,50000
 675,13;  465,000;  437,000;    0,000;28,00000
 675,46;  436,500;  435,000;    0,000; 1,50000
 675,78;  472,500;  425,000;    0,000;47,50000
 676,11;  436,500;  416,000;    0,000;20,50000
 676,43;  512,000;  455,500;    0,000;56,50000
 676,76;  454,000;  427,500;    0,000;26,50000
 677,08;  513,000;  441,500;    0,000;71,50000
 677,41;  447,000;  454,000;    0,000;-7,00000
 677,73;  506,000;  406,000;    0,000;100,00000
 678,06;  479,500;  393,500;    0,000;86,00000
 678,38;  434,500;  421,500;    0,000;13,00000
 678,71;  484,000;  418,500;    0,000;65,50000
 679,03;  481,000;  454,500;    0,000;26,50000
 679,36;  476,000;  395,000;    0,000;81,00000
 679,68;  466,500;  417,500;    0,000;49,00000
 680,01;  437,000;  428,500;    0,000; 8,50000
 680,33;  512,000;  474,000;    0,000;38,00000
 680,66;  486,500;  429,000;    0,000;57,50000
 680,98;  449,000;  451,000;    0,000;-2,00000
 681,31;  479,000;  447,500;    0,000;31,50000
 681,63;  459,500;  446,000;    0,000;13,50000
 681,96;  507,500;  401,500;    0,000;106,00000
 682,28;  494,000;  405,000;    0,000;89,00000
 682,61;  475,500;  424,000;    0,000;51,50000
 682,93;  456,500;  459,500;    0,000;-3,00000
 683,26;  448,500;  423,000;    0,000;25,50000
 683,58;  453,500;  446,500;    0,000; 7,00000
 683,91;  477,500;  427,500;    0,000;50,00000
 684,23;  506,500;  437,500;    0,000;69,00000
 684,56;  467,000;  442,500;    0,000;24,50000
 684,88;  458,000;  489,500;    0,000;-31,50000
 685,20;  491,500;  431,000;    0,000;60,50000
 685,53;  450,500;  428,500;    0,000;22,00000
 685,85;  478,000;  428,500;    0,000;49,50000
 686,18;  502,500;  486,000;    0,000;16,50000
 686,50;  444,500;  379,500;    0,000;65,00000
 686,83;  498,500;  433,000;    0,000;65,50000
 687,15;  456,000;  408,000;    0,000;48,00000
 687,48;  460,000;  411,000;    0,000;49,00000
 687,80;  436,000;  413,500;    0,000;22,50000
 688,13;  458,000;  426,500;    0,000;31,50000
 688,45;  447,000;  390,500;    0,000;56,50000
 688,78;  463,000;  399,000;    0,000;64,00000
 689,10;  516,500;  433,500;    0,000;83,00000
 689,43;  489,000;  418,500;    0,000;70,50000
 689,75;  483,000;  432,000;    0,000;51,00000
 690,07;  463,000;  418,000;    0,000;45,00000
 690,40;  515,500;  420,000;    0,000;95,50000
 690,72;  444,000;  433,500;    0,000;10,50000
 691,05;  469,000;  389,000;    0,000;80,00000
 691,37;  478,000;  446,500;    0,000;31,50000
 691,70;  508,500;  403,000;    0,000;105,50000
 692,02;  460,500;  401,000;    0,000;59,50000
 692,35;  497,000;  415,500;    0,000;81,50000
 692,67;  515,500;  432,000;    0,000;83,50000
 693,00;  460,000;  373,000;    0,000;87,00000
 693,32;  504,000;  421,000;    0,000;83,00000
 693,64;  417,000;  443,000;    0,000;-26,00000
 693,97;  460,500;  449,500;    0,000;11,00000
 694,29;  476,500;  400,000;    0,000;76,50000
 694,62;  449,500;  420,500;    0,000;29,00000
 694,94;  448,500;  462,500;    0,000;-14,00000
 695,27;  434,000;  414,500;    0,000;19,50000
 695,59;  463,000;  417,500;    0,000;45,50000
 695,91;  461,000;  469,500;    0,000;-8,50000
 696,24;  478,500;  373,000;    0,000;105,50000
 696,56;  462,000;  463,000;    0,000;-1,00000
 696,89;  476,000;  411,000;    0,000;65,00000
 697,21;  475,500;  415,500;    0,000;60,00000
 697,54;  473,500;  450,500;    0,000;23,00000
 697,86;  473,000;  426,500;    0,000;46,50000
 698,18;  452,000;  475,000;    0,000;-23,00000
 698,51;  475,500;  420,500;    0,000;55,00000
 698,83;  442,500;  449,500;    0,000;-7,00000
 699,16;  453,500;  442,000;    0,000;11,50000
 699,48;  497,000;  386,000;    0,000;111,00000
 699,80;  442,000;  455,000;    0,000;-13,00000
 700,13;  471,500;  408,000;    0,000;63,50000
 700,45;  441,000;  390,500;    0,000;50,50000
 700,78;  461,500;  467,000;    0,000;-5,50000
 701,10;  479,500;  464,500;    0,000;15,00000
 701,43;  469,500;  403,000;    0,000;66,50000
 701,75;  483,500;  399,500;    0,000;84,00000
 702,07;  486,000;  420,000;    0,000;66,00000
 702,40;  440,500;  445,500;    0,000;-5,00000
 702,72;  490,500;  404,000;    0,000;86,50000
 703,05;  467,500;  446,000;    0,000;21,50000
 703,37;  476,500;  477,500;    0,000;-1,00000
 703,69;  463,000;  443,500;    0,000;19,50000
 704,02;  435,000;  394,500;    0,000;40,50000
 704,34;  391,000;  420,500;    0,000;-29,50000
 704,67;  487,500;  428,500;    0,000;59,00000
 704,99;  491,000;  451,500;    0,000;39,50000
 705,31;  451,500;  489,500;    0,000;-38,00000
 705,64;  463,000;  434,000;    0,000;29,00000
 705,96;  456,500;  419,000;    0,000;37,50000
 706,28;  449,500;  431,000;    0,000;18,50000
 706,61;  488,500;  439,500;    0,000;49,00000
 706,93;  491,500;  461,500;    0,000;30,00000
 707,26;  463,000;  424,000;    0,000;39,00000
 707,58;  434,000;  409,500;    0,000;24,50000
 707,90;  468,500;  434,000;    0,000;34,50000
 708,23;  458,000;  431,500;    0,000;26,50000
 708,55;  489,500;  428,500;    0,000;61,00000
 708,88;  438,000;  402,500;    0,000;35,50000
 709,20;  457,500;  417,500;    0,000;40,00000
 709,52;  516,000;  419,500;    0,000;96,50000
 709,85;  458,000;  386,500;    0,000;71,50000
 710,17;  435,500;  406,000;    0,000;29,50000
 710,49;  452,000;  413,000;    0,000;39,00000
 710,82;  385,500;  426,500;    0,000;-41,00000
 711,14;  491,500;  497,500;    0,000;-6,00000
 711,46;  455,500;  445,000;    0,000;10,50000
 711,79;  494,500;  458,000;    0,000;36,50000
 712,11;  424,000;  404,000;    0,000;20,00000
 712,44;  452,500;  442,000;    0,000;10,50000
 712,76;  493,500;  438,500;    0,000;55,00000
 713,08;  407,500;  432,500;    0,000;-25,00000
 713,41;  461,000;  425,500;    0,000;35,50000
 713,73;  472,500;  409,500;    0,000;63,00000
 714,05;  485,000;  486,500;    0,000;-1,50000
 714,38;  505,500;  443,000;    0,000;62,50000
 714,70;  461,500;  459,000;    0,000; 2,50000
 715,02;  443,000;  440,500;    0,000; 2,50000
 715,35;  439,000;  444,500;    0,000;-5,50000
 715,67;  468,500;  479,000;    0,000;-10,50000
 715,99;  452,500;  419,500;    0,000;33,00000
 716,32;  451,500;  446,000;    0,000; 5,50000
 716,64;  458,500;  506,000;    0,000;-47,50000
 716,96;  436,000;  433,000;    0,000; 3,00000
 717,29;  469,000;  399,500;    0,000;69,50000
 717,61;  484,000;  429,500;    0,000;54,50000
 717,93;  476,500;  468,000;    0,000; 8,50000
 718,26;  437,000;  425,500;    0,000;11,50000
 718,58;  457,500;  426,000;    0,000;31,50000
 718,90;  437,000;  417,500;    0,000;19,50000
 719,23;  462,500;  414,500;    0,000;48,00000
 719,55;  461,000;  461,000;    0,000; 0,00000
 719,87;  520,000;  423,500;    0,000;96,50000
 720,20;  466,500;  387,500;    0,000;79,00000
 720,52;  472,500;  438,500;    0,000;34,00000
 720,84;  450,000;  431,000;    0,000;19,00000
 721,17;  496,500;  417,000;    0,000;79,50000
 721,49;  463,500;  476,500;    0,000;-13,00000
 721,81;  453,000;  431,500;    0,000;21,50000
 722,14;  492,000;  413,000;    0,000;79,00000
 722,46;  483,500;  435,500;    0,000;48,00000
 722,78;  481,000;  410,000;    0,000;71,00000
 723,11;  499,500;  421,000;    0,000;78,50000
 723,43;  459,500;  486,500;    0,000;-27,00000
 723,75;  426,000;  445,000;    0,000;-19,00000
 724,08;  471,500;  441,500;    0,000;30,00000
 724,40;  425,500;  419,500;    0,000; 6,00000
 724,72;  489,500;  466,500;    0,000;23,00000
 725,04;  475,500;  435,000;    0,000;40,50000
 725,37;  470,000;  450,000;    0,000;20,00000
 725,69;  480,500;  430,500;    0,000;50,00000
 726,01;  445,500;  439,500;    0,000; 6,00000
 726,34;  434,500;  434,000;    0,000; 0,50000
 726,66;  472,500;  439,000;    0,000;33,50000
 726,98;  459,000;  418,000;    0,000;41,00000
 727,31;  453,000;  453,000;    0,000; 0,00000
 727,63;  457,500;  446,500;    0,000;11,00000
 727,95;  490,000;  398,500;    0,000;91,50000
 728,27;  459,000;  447,500;    0,000;11,50000
 728,60;  499,000;  435,000;    0,000;64,00000
 728,92;  469,000;  436,500;    0,000;32,50000
 729,24;  476,500;  428,000;    0,000;48,50000
 729,57;  484,000;  444,000;    0,000;40,00000
 729,89;  482,000;  440,500;    0,000;41,50000
 730,21;  461,500;  444,000;    0,000;17,50000
 730,53;  442,000;  421,000;    0,000;21,00000
 730,86;  511,000;  415,000;    0,000;96,00000
 731,18;  445,000;  420,500;    0,000;24,50000
 731,50;  466,000;  450,000;    0,000;16,00000
 731,82;  485,500;  460,500;    0,000;25,00000
 732,15;  505,000;  433,500;    0,000;71,50000
 732,47;  473,500;  405,500;    0,000;68,00000
 732,79;  468,000;  386,000;    0,000;82,00000
 733,12;  477,000;  449,500;    0,000;27,50000
 733,44;  464,500;  402,000;    0,000;62,50000
 733,76;  473,000;  423,500;    0,000;49,50000
 734,08;  503,500;  429,500;    0,000;74,00000
 734,41;  530,500;  443,000;    0,000;87,50000
 734,73;  468,000;  445,500;    0,000;22,50000
 735,05;  461,000;  396,500;    0,000;64,50000
 735,37;  488,000;  360,500;    0,000;127,50000
 735,70;  456,500;  420,500;    0,000;36,00000
 736,02;  499,000;  434,000;    0,000;65,00000
 736,34;  482,500;  451,500;    0,000;31,00000
 736,66;  465,000;  431,000;    0,000;34,00000
 736,99;  471,000;  419,000;    0,000;52,00000
 737,31;  479,000;  408,000;    0,000;71,00000
 737,63;  492,000;  405,000;    0,000;87,00000
 737,95;  465,000;  421,500;    0,000;43,50000
 738,28;  475,500;  413,500;    0,000;62,00000
 738,60;  414,000;  441,000;    0,000;-27,00000
 738,92;  454,500;  431,500;    0,000;23,00000
 739,24;  462,000;  432,000;    0,000;30,00000
 739,57;  443,500;  464,500;    0,000;-21,00000
 739,89;  442,500;  474,500;    0,000;-32,00000
 740,21;  494,000;  402,000;    0,000;92,00000
 740,53;  432,000;  412,500;    0,000;19,50000
 740,86;  475,000;  413,500;    0,000;61,50000
 741,18;  455,500;  407,000;    0,000;48,50000
 741,50;  443,000;  447,000;    0,000;-4,00000
 741,82;  435,000;  426,000;    0,000; 9,00000
 742,14;  457,500;  473,000;    0,000;-15,50000
 742,47;  534,500;  400,500;    0,000;134,00000
 742,79;  483,500;  452,000;    0,000;31,50000
 743,11;  456,000;  428,500;    0,000;27,50000
 743,43;  508,500;  419,000;    0,000;89,50000
 743,76;  467,500;  423,500;    0,000;44,00000
 744,08;  468,000;  485,000;    0,000;-17,00000
 744,40;  485,500;  456,500;    0,000;29,00000
 744,72;  465,000;  490,000;    0,000;-25,00000
 745,04;  420,000;  417,500;    0,000; 2,50000
 745,37;  486,500;  442,500;    0,000;44,00000
 745,69;  488,000;  428,000;    0,000;60,00000
 746,01;  461,500;  449,000;    0,000;12,50000
 746,33;  481,500;  388,500;    0,000;93,00000
 746,66;  433,500;  478,500;    0,000;-45,00000
 746,98;  457,000;  461,000;    0,000;-4,00000
 747,30;  488,000;  438,000;    0,000;50,00000
 747,62;  452,500;  428,000;    0,000;24,50000
 747,94;  425,500;  402,000;    0,000;23,50000
 748,27;  469,500;  397,000;    0,000;72,50000
 748,59;  475,000;  465,500;    0,000; 9,50000
 748,91;  456,000;  421,500;    0,000;34,50000
 749,23;  432,000;  476,000;    0,000;-44,00000
 749,55;  494,500;  465,500;    0,000;29,00000
 749,88;  446,500;  424,000;    0,000;22,50000
 750,20;  509,500;  395,500;    0,000;114,00000
 750,52;  473,000;  421,500;    0,000;51,50000
 750,84;  473,000;  454,500;    0,000;18,50000
 751,16;  432,000;  418,500;    0,000;13,50000
 751,48;  477,000;  409,500;    0,000;67,50000
 751,81;  480,500;  402,500;    0,000;78,00000
 752,13;  484,000;  409,500;    0,000;74,50000
 752,45;  461,000;  400,000;    0,000;61,00000
 752,77;  443,000;  452,000;    0,000;-9,00000
 753,09;  474,500;  385,500;    0,000;89,00000
 753,42;  499,000;  448,000;    0,000;51,00000
 753,74;  455,500;  420,500;    0,000;35,00000
 754,06;  473,500;  424,000;    0,000;49,50000
 754,38;  475,500;  419,500;    0,000;56,00000
 754,70;  498,000;  412,500;    0,000;85,50000
 755,02;  423,500;  419,000;    0,000; 4,50000
 755,35;  467,500;  439,000;    0,000;28,50000
 755,67;  429,500;  423,500;    0,000; 6,00000
 755,99;  505,500;  442,500;    0,000;63,00000
 756,31;  471,500;  441,000;    0,000;30,50000
 756,63;  485,500;  440,000;    0,000;45,50000
 756,95;  496,500;  396,500;    0,000;100,00000
 757,28;  479,500;  402,500;    0,000;77,00000
 757,60;  478,500;  442,000;    0,000;36,50000
 757,92;  500,500;  453,500;    0,000;47,00000
 758,24;  453,500;  438,000;    0,000;15,50000
 758,56;  506,000;  436,000;    0,000;70,00000
 758,88;  480,500;  452,000;    0,000;28,50000
 759,20;  448,000;  413,000;    0,000;35,00000
 759,53;  478,000;  411,500;    0,000;66,50000
 759,85;  451,500;  451,500;    0,000; 0,00000
 760,17;  495,500;  458,000;    0,000;37,50000
 760,49;  476,000;  458,000;    0,000;18,00000
 760,81;  458,500;  449,500;    0,000; 9,00000
 761,13;  465,000;  400,500;    0,000;64,50000
 761,46;  440,500;  455,500;    0,000;-15,00000
 761,78;  462,500;  398,000;    0,000;64,50000
 762,10;  461,000;  443,000;    0,000;18,00000
 762,42;  442,000;  390,500;    0,000;51,50000
 762,74;  436,500;  422,000;    0,000;14,50000
 763,06;  455,000;  404,500;    0,000;50,50000
 763,38;  460,000;  416,000;    0,000;44,00000
 763,70;  498,000;  407,500;    0,000;90,50000
 764,03;  462,000;  420,000;    0,000;42,00000
 764,35;  512,000;  427,500;    0,000;84,50000
 764,67;  412,000;  480,000;    0,000;-68,00000
 764,99;  479,000;  447,000;    0,000;32,00000
 765,31;  466,000;  417,500;    0,000;48,50000
 765,63;  485,500;  402,000;    0,000;83,50000
 765,95;  461,000;  467,500;    0,000;-6,50000
 766,27;  480,500;  421,000;    0,000;59,50000
 766,60;  476,000;  443,500;    0,000;32,50000
 766,92;  434,000;  431,500;    0,000; 2,50000
 767,24;  404,500;  475,000;    0,000;-70,50000
 767,56;  452,000;  435,500;    0,000;16,50000
 767,88;  487,000;  398,000;    0,000;89,00000
 768,20;  442,500;  442,500;    0,000; 0,00000
 768,52;  464,500;  391,500;    0,000;73,00000
 768,84;  465,000;  419,500;    0,000;45,50000
 769,16;  480,000;  443,500;    0,000;36,50000
 769,49;  446,500;  439,000;    0,000; 7,50000
 769,81;  469,000;  426,000;    0,000;43,00000
 770,13;  470,000;  421,500;    0,000;48,50000
 770,45;  484,000;  446,500;    0,000;37,50000
 770,77;  472,500;  428,500;    0,000;44,00000
 771,09;  459,000;  468,500;    0,000;-9,50000
 771,41;  456,000;  377,500;    0,000;78,50000
 771,73;  486,000;  413,500;    0,000;72,50000
 772,05;  415,000;  419,000;    0,000;-4,00000
 772,37;  438,000;  431,000;    0,000; 7,00000
 772,70;  496,500;  472,000;    0,000;24,50000
 773,02;  480,000;  432,500;    0,000;47,50000
 773,34;  462,500;  429,500;    0,000;33,00000
 773,66;  472,500;  443,500;    0,000;29,00000
 773,98;  467,000;  400,000;    0,000;67,00000
 774,30;  456,000;  432,000;    0,000;24,00000
 774,62;  456,000;  448,000;    0,000; 8,00000
 774,94;  467,000;  463,500;    0,000; 3,50000
 775,26;  475,000;  421,500;    0,000;53,50000
 775,58;  454,500;  449,000;    0,000; 5,50000
 775,90;  462,000;  441,500;    0,000;20,50000
 776,22;  411,500;  447,000;    0,000;-35,50000
 776,54;  436,000;  438,500;    0,000;-2,50000
 776,87;  450,000;  410,500;    0,000;39,50000
 777,19;  440,000;  435,000;    0,000; 5,00000
 777,51;  482,500;  409,500;    0,000;73,00000
 777,83;  454,500;  387,500;    0,000;67,00000
 778,15;  497,000;  403,000;    0,000;94,00000
 778,47;  468,000;  439,000;    0,000;29,00000
 778,79;  481,500;  382,000;    0,000;99,50000
 779,11;  482,000;  451,500;    0,000;30,50000
 779,43;  504,000;  461,500;    0,000;42,50000
 779,75;  507,500;  411,500;    0,000;96,00000
 780,07;  505,000;  455,500;    0,000;49,50000
 780,39;  458,500;  413,500;    0,000;45,00000
 780,71;  468,000;  399,500;    0,000;68,50000
 781,03;  475,000;  428,500;    0,000;46,50000
 781,35;  468,500;  454,500;    0,000;14,00000
 781,67;  471,500;  491,500;    0,000;-20,00000
 781,99;  500,000;  441,500;    0,000;58,50000
 782,32;  489,000;  456,500;    0,000;32,50000
 782,64;  479,500;  435,000;    0,000;44,50000
 782,96;  505,000;  436,000;    0,000;69,00000
 783,28;  419,500;  414,500;    0,000; 5,00000
 783,60;  474,500;  414,500;    0,000;60,00000
 783,92;  440,000;  432,000;    0,000; 8,00000
 784,24;  486,500;  466,000;    0,000;20,50000
 784,56;  444,500;  435,000;    0,000; 9,50000
 784,88;  448,500;  428,000;    0,000;20,50000
 785,20;  465,000;  464,000;    0,000; 1,00000
 785,52;  478,500;  420,500;    0,000;58,00000
 785,84;  437,000;  422,500;    0,000;14,50000
 786,16;  463,000;  422,500;    0,000;40,50000
 786,48;  474,000;  402,500;    0,000;71,50000
 786,80;  456,000;  444,500;    0,000;11,50000
 787,12;  443,000;  423,000;    0,000;20,00000
 787,44;  432,500;  444,000;    0,000;-11,50000
 787,76;  463,500;  446,000;    0,000;17,50000
 788,08;  472,000;  431,000;    0,000;41,00000
 788,40;  486,000;  413,000;    0,000;73,00000
 788,72;  453,500;  390,000;    0,000;63,50000
 789,04;  479,000;  429,000;    0,000;50,00000
 789,36;  432,500;  469,000;    0,000;-36,50000
 789,68;  439,000;  419,500;    0,000;19,50000
 790,00;  453,000;  409,500;    0,000;43,50000
 790,32;  479,500;  417,000;    0,000;62,50000
 790,64;  450,000;  408,500;    0,000;41,50000
 790,96;  475,000;  440,000;    0,000;35,00000
 791,28;  463,000;  467,500;    0,000;-4,50000
 791,60;  498,000;  397,500;    0,000;100,50000
 791,92;  479,500;  402,000;    0,000;77,50000
 792,24;  430,500;  446,000;    0,000;-15,50000
 792,56;  422,000;  447,500;    0,000;-25,50000
 792,88;  391,500;  431,500;    0,000;-40,00000
 793,20;  508,000;  419,500;    0,000;88,50000
 793,52;  458,500;  445,000;    0,000;13,50000
 793,84;  485,000;  464,000;    0,000;21,00000
 794,16;  446,000;  432,500;    0,000;13,50000
 794,48;  426,500;  428,500;    0,000;-2,00000
 794,80;  453,500;  408,500;    0,000;45,00000
 795,12;  463,000;  448,000;    0,000;15,00000
 795,44;  418,500;  411,000;    0,000; 7,50000
 795,76;  464,000;  412,000;    0,000;52,00000
 796,08;  449,000;  408,000;    0,000;41,00000
 796,40;  510,500;  414,000;    0,000;96,50000
 796,72;  467,500;  441,500;    0,000;26,00000
 797,04;  450,000;  438,500;    0,000;11,50000
 797,36;  480,000;  434,000;    0,000;46,00000
 797,68;  473,000;  371,000;    0,000;102,00000
 798,00;  464,000;  440,500;    0,000;23,50000
 798,32;  436,500;  461,500;    0,000;-25,00000
 798,64;  442,000;  428,000;    0,000;14,00000
 798,96;  485,500;  402,000;    0,000;83,50000
 799,28;  497,500;  441,500;    0,000;56,00000
 799,60;  468,000;  423,000;    0,000;45,00000
 799,92;  473,000;  427,500;    0,000;45,50000
 800,24;  473,500;  455,500;    0,000;18,00000
 800,56;  488,500;  415,500;    0,000;73,00000
 800,88;  476,500;  429,500;    0,000;47,00000
 801,20;  460,000;  439,000;    0,000;21,00000
 801,52;  433,000;  436,500;    0,000;-3,50000
 801,83;  484,500;  416,500;    0,000;68,00000
 802,15;  435,000;  435,500;    0,000;-0,50000
 802,47;  472,000;  439,500;    0,000;32,50000
 802,79;  429,500;  444,500;    0,000;-15,00000
 803,11;  466,000;  468,000;    0,000;-2,00000
 803,43;  389,000;  461,000;    0,000;-72,00000
 803,75;  419,500;  413,500;    0,000; 6,00000
 804,07;  451,000;  472,500;    0,000;-21,50000
 804,39;  493,500;  396,000;    0,000;97,50000
 804,71;  480,500;  412,500;    0,000;68,00000
 805,03;  474,000;  453,000;    0,000;21,00000
 805,35;  449,500;  433,500;    0,000;16,00000
 805,67;  449,000;  413,000;    0,000;36,00000
 805,99;  467,500;  457,500;    0,000;10,00000
 806,31;  451,000;  413,000;    0,000;38,00000
 806,63;  434,000;  419,000;    0,000;15,00000
 806,95;  473,500;  428,500;    0,000;45,00000
 807,26;  471,000;  439,000;    0,000;32,00000
 807,58;  476,500;  425,500;    0,000;51,00000
 807,90;  442,500;  458,000;    0,000;-15,50000
 808,22;  462,500;  400,500;    0,000;62,00000
 808,54;  462,500;  438,000;    0,000;24,50000
 808,86;  432,000;  426,000;    0,000; 6,00000
 809,18;  459,000;  428,500;    0,000;30,50000
 809,50;  457,000;  404,000;    0,000;53,00000
 809,82;  423,000;  390,000;    0,000;33,00000
 810,14;  447,000;  424,500;    0,000;22,50000
 810,46;  443,000;  463,500;    0,000;-20,50000
 810,78;  441,000;  435,000;    0,000; 6,00000
 811,10;  467,000;  439,500;    0,000;27,50000
 811,41;  489,500;  403,000;    0,000;86,50000
 811,73;  445,000;  463,000;    0,000;-18,00000
 812,05;  409,000;  416,500;    0,000;-7,50000
 812,37;  469,000;  442,500;    0,000;26,50000
 812,69;  464,500;  396,500;    0,000;68,00000
 813,01;  475,500;  381,500;    0,000;94,00000
 813,33;  502,500;  457,500;    0,000;45,00000
 813,65;  435,000;  432,000;    0,000; 3,00000
 813,97;  495,000;  436,000;    0,000;59,00000
 814,29;  476,000;  476,000;    0,000; 0,00000
 814,60;  459,500;  394,500;    0,000;65,00000
 814,92;  451,000;  440,500;    0,000;10,50000
 815,24;  472,500;  428,500;    0,000;44,00000
 815,56;  441,000;  466,500;    0,000;-25,50000
 815,88;  470,500;  408,000;    0,000;62,50000
 816,20;  486,500;  391,000;    0,000;95,50000
 816,52;  450,500;  418,000;    0,000;32,50000
 816,84;  509,000;  394,000;    0,000;115,00000
 817,16;  464,000;  395,000;    0,000;69,00000
 817,47;  470,000;  404,500;    0,000;65,50000
 817,79;  456,000;  391,000;    0,000;65,00000
 818,11;  436,000;  444,000;    0,000;-8,00000
 818,43;  453,500;  386,500;    0,000;67,00000
 818,75;  500,000;  426,000;    0,000;74,00000
 819,07;  478,000;  447,000;    0,000;31,00000
 819,39;  497,500;  395,500;    0,000;102,00000
 819,71;  469,500;  427,500;    0,000;42,00000
 820,02;  451,500;  427,000;    0,000;24,50000
 820,34;  424,500;  473,000;    0,000;-48,50000
 820,66;  469,500;  429,500;    0,000;40,00000
 820,98;  487,500;  448,500;    0,000;39,00000
 821,30;  473,500;  427,500;    0,000;46,00000
 821,62;  430,500;  443,500;    0,000;-13,00000
 821,94;  456,000;  417,500;    0,000;38,50000
 822,25;  505,500;  478,500;    0,000;27,00000
 822,57;  473,500;  449,000;    0,000;24,50000
 822,89;  459,500;  397,500;    0,000;62,00000
 823,21;  472,000;  416,500;    0,000;55,50000
 823,53;  496,500;  448,500;    0,000;48,00000
 823,85;  487,500;  414,000;    0,000;73,50000
 824,17;  496,500;  440,000;    0,000;56,50000
 824,48;  470,500;  428,500;    0,000;42,00000
 824,80;  495,000;  415,000;    0,000;80,00000
 825,12;  488,000;  433,000;    0,000;55,00000
 825,44;  433,500;  407,000;    0,000;26,50000
 825,76;  496,000;  379,000;    0,000;117,00000
 826,08;  446,000;  407,000;    0,000;39,00000
 826,39;  464,000;  423,000;    0,000;41,00000
 826,71;  468,500;  421,500;    0,000;47,00000
 827,03;  468,500;  440,000;    0,000;28,50000
 827,35;  481,000;  432,500;    0,000;48,50000
 827,67;  476,000;  425,000;    0,000;51,00000
 827,99;  430,000;  431,500;    0,000;-1,50000
 828,30;  495,000;  386,500;    0,000;108,50000
 828,62;  542,000;  437,000;    0,000;105,00000
 828,94;  484,500;  375,000;    0,000;109,50000
 829,26;  422,000;  405,000;    0,000;17,00000
 829,58;  482,000;  465,500;    0,000;16,50000
 829,90;  462,500;  456,000;    0,000; 6,50000
 830,21;  451,500;  455,000;    0,000;-3,50000
 830,53;  450,000;  438,500;    0,000;11,50000
 830,85;  414,000;  463,500;    0,000;-49,50000
 831,17;  408,500;  434,500;    0,000;-26,00000
 831,49;  457,000;  416,000;    0,000;41,00000
 831,81;  499,500;  439,000;    0,000;60,50000
 832,12;  471,500;  413,000;    0,000;58,50000
 832,44;  490,000;  416,500;    0,000;73,50000
 832,76;  465,000;  440,000;    0,000;25,00000
 833,08;  476,000;  440,000;    0,000;36,00000
 833,40;  443,500;  408,000;    0,000;35,50000
 833,71;  522,500;  420,500;    0,000;102,00000
 834,03;  470,500;  465,000;    0,000; 5,50000
 834,35;  471,000;  443,500;    0,000;27,50000
 834,67;  480,500;  401,500;    0,000;79,00000
 834,99;  490,500;  395,500;    0,000;95,00000
 835,30;  450,000;  444,000;    0,000; 6,00000
 835,62;  424,000;  406,000;    0,000;18,00000
 835,94;  498,500;  444,500;    0,000;54,00000
 836,26;  447,000;  409,500;    0,000;37,50000
 836,58;  472,000;  425,500;    0,000;46,50000
 836,89;  480,000;  437,000;    0,000;43,00000
 837,21;  435,500;  424,000;    0,000;11,50000
 837,53;  464,000;  419,000;    0,000;45,00000
 837,85;  432,500;  443,500;    0,000;-11,00000
 838,16;  438,000;  444,500;    0,000;-6,50000
 838,48;  455,000;  452,500;    0,000; 2,50000
 838,80;  439,500;  417,500;    0,000;22,00000
 839,12;  478,000;  387,500;    0,000;90,50000
 839,44;  439,000;  422,500;    0,000;16,50000
 839,75;  503,500;  443,000;    0,000;60,50000
 840,07;  412,500;  453,000;    0,000;-40,50000
 840,39;  538,500;  409,500;    0,000;129,00000
 840,71;  446,500;  397,500;    0,000;49,00000
 841,02;  489,500;  437,000;    0,000;52,50000
 841,34;  460,500;  422,500;    0,000;38,00000
 841,66;  462,000;  442,000;    0,000;20,00000
 841,98;  422,000;  375,500;    0,000;46,50000
 842,29;  449,000;  385,500;    0,000;63,50000
 842,61;  503,500;  437,500;    0,000;66,00000
 842,93;  424,000;  451,000;    0,000;-27,00000
 843,25;  497,000;  439,500;    0,000;57,50000
 843,57;  458,000;  411,500;    0,000;46,50000
 843,88;  468,500;  451,500;    0,000;17,00000
 844,20;  480,500;  448,500;    0,000;32,00000
 844,52;  440,000;  428,500;    0,000;11,50000
 844,84;  474,500;  446,500;    0,000;28,00000
 845,15;  488,500;  405,500;    0,000;83,00000
 845,47;  523,000;  453,500;    0,000;69,50000
 845,79;  427,000;  425,000;    0,000; 2,00000
 846,11;  446,000;  408,000;    0,000;38,00000
 846,42;  472,000;  398,000;    0,000;74,00000
 846,74;  529,000;  428,500;    0,000;100,50000
 847,06;  485,500;  447,500;    0,000;38,00000
 847,37;  443,500;  426,000;    0,000;17,50000
 847,69;  458,000;  420,500;    0,000;37,50000
 848,01;  448,000;  444,000;    0,000; 4,00000
 848,33;  493,000;  407,000;    0,000;86,00000
 848,64;  438,500;  450,500;    0,000;-12,00000
 848,96;  453,500;  432,500;    0,000;21,00000
 849,28;  489,500;  404,000;    0,000;85,50000
 849,60;  481,500;  434,500;    0,000;47,00000
 849,91;  432,000;  428,500;    0,000; 3,50000
 850,23;  438,000;  432,000;    0,000; 6,00000
 850,55;  436,500;  453,000;    0,000;-16,50000
 850,86;  478,500;  384,500;    0,000;94,00000
 851,18;  455,500;  388,000;    0,000;67,50000
 851,50;  426,000;  421,000;    0,000; 5,00000
 851,82;  440,000;  391,000;    0,000;49,00000
 852,13;  473,000;  417,000;    0,000;56,00000
 852,45;  455,000;  430,000;    0,000;25,00000
 852,77;  429,500;  408,500;    0,000;21,00000
 853,08;  472,500;  426,500;    0,000;46,00000
 853,40;  485,000;  421,500;    0,000;63,50000
 853,72;  466,000;  418,500;    0,000;47,50000
 854,04;  495,500;  438,500;    0,000;57,00000
 854,35;  481,500;  494,000;    0,000;-12,50000
 854,67;  459,000;  422,000;    0,000;37,00000
 854,99;  492,500;  448,500;    0,000;44,00000
 855,30;  517,500;  421,000;    0,000;96,50000
 855,62;  491,500;  421,000;    0,000;70,50000
 855,94;  382,500;  423,500;    0,000;-41,00000
 856,25;  479,500;  459,000;    0,000;20,50000
 856,57;  467,000;  384,000;    0,000;83,00000
 856,89;  471,500;  384,000;    0,000;87,50000
 857,21;  445,500;  408,000;    0,000;37,50000
 857,52;  482,000;  402,500;    0,000;79,50000
 857,84;  470,500;  453,000;    0,000;17,50000
 858,16;  401,500;  426,000;    0,000;-24,50000
 858,47;  483,500;  424,000;    0,000;59,50000
 858,79;  480,500;  413,500;    0,000;67,00000
 859,11;  509,500;  413,000;    0,000;96,50000
 859,42;  489,000;  445,000;    0,000;44,00000
 859,74;  493,500;  415,500;    0,000;78,00000
 860,06;  446,500;  429,500;    0,000;17,00000
 860,37;  476,000;  448,500;    0,000;27,50000
 860,69;  396,500;  435,000;    0,000;-38,50000
 861,01;  480,000;  395,000;    0,000;85,00000
 861,32;  446,500;  440,500;    0,000; 6,00000
 861,64;  499,000;  434,500;    0,000;64,50000
 861,96;  466,000;  446,000;    0,000;20,00000
 862,27;  469,000;  419,000;    0,000;50,00000
 862,59;  438,500;  413,000;    0,000;25,50000
 862,91;  456,000;  427,000;    0,000;29,00000
 863,22;  459,000;  462,000;    0,000;-3,00000
 863,54;  496,500;  435,000;    0,000;61,50000
 863,86;  490,000;  431,500;    0,000;58,50000
 864,17;  461,000;  419,000;    0,000;42,00000
 864,49;  489,000;  442,500;    0,000;46,50000
 864,81;  410,000;  481,000;    0,000;-71,00000
 865,12;  494,000;  410,000;    0,000;84,00000
 865,44;  502,500;  405,500;    0,000;97,00000
 865,76;  454,000;  445,500;    0,000; 8,50000
 866,07;  449,000;  397,000;    0,000;52,00000
 866,39;  467,500;  395,000;    0,000;72,50000
 866,71;  465,000;  401,000;    0,000;64,00000
 867,02;  502,000;  447,500;    0,000;54,50000
 867,34;  455,000;  434,500;    0,000;20,50000
 867,65;  454,000;  441,500;    0,000;12,50000
 867,97;  503,500;  403,500;    0,000;100,00000
 868,29;  468,500;  438,000;    0,000;30,50000
 868,60;  430,500;  428,500;    0,000; 2,00000
 868,92;  466,000;  411,000;    0,000;55,00000
 869,24;  446,500;  439,500;    0,000; 7,00000
 869,55;  474,500;  434,500;    0,000;40,00000
 869,87;  456,000;  411,000;    0,000;45,00000
 870,18;  430,000;  461,000;    0,000;-31,00000
 870,50;  470,000;  428,000;    0,000;42,00000
 870,82;  442,000;  416,500;    0,000;25,50000
 871,13;  482,000;  397,000;    0,000;85,00000
 871,45;  478,500;  426,500;    0,000;52,00000
 871,77;  438,000;  431,500;    0,000; 6,50000
 872,08;  457,000;  431,000;    0,000;26,00000
 872,40;  452,500;  464,000;    0,000;-11,50000
 872,71;  476,000;  453,500;    0,000;22,50000
 873,03;  487,000;  427,000;    0,000;60,00000
 873,35;  437,000;  452,500;    0,000;-15,50000
 873,66;  477,000;  415,500;    0,000;61,50000
 873,98;  447,000;  428,500;    0,000;18,50000
 874,29;  449,500;  431,500;    0,000;18,00000
 874,61;  435,000;  469,500;    0,000;-34,50000
 874,93;  470,500;  446,000;    0,000;24,50000
 875,24;  500,500;  446,500;    0,000;54,00000
 875,56;  509,500;  440,000;    0,000;69,50000
 875,87;  481,500;  451,500;    0,000;30,00000
 876,19;  495,000;  371,500;    0,000;123,50000
 876,51;  476,000;  454,000;    0,000;22,00000
 876,82;  472,000;  382,000;    0,000;90,00000
 877,14;  450,500;  404,500;    0,000;46,00000
 877,45;  446,500;  410,500;    0,000;36,00000
 877,77;  466,000;  409,500;    0,000;56,50000
 878,09;  452,000;  456,000;    0,000;-4,00000
 878,40;  524,500;  432,500;    0,000;92,00000
 878,72;  470,000;  430,000;    0,000;40,00000
 879,03;  469,000;  428,000;    0,000;41,00000
 879,35;  438,000;  383,500;    0,000;54,50000
 879,67;  476,000;  413,000;    0,000;63,00000
 879,98;  476,000;  394,000;    0,000;82,00000
 880,30;  477,500;  425,500;    0,000;52,00000
 880,61;  451,000;  428,000;    0,000;23,00000
 880,93;  442,000;  401,500;    0,000;40,50000
 881,24;  496,500;  424,000;    0,000;72,50000
 881,56;  464,000;  431,000;    0,000;33,00000
 881,88;  501,500;  438,500;    0,000;63,00000
 882,19;  476,000;  459,000;    0,000;17,00000
 882,51;  455,500;  392,500;    0,000;63,00000
 882,82;  474,000;  403,500;    0,000;70,50000
 883,14;  494,500;  432,000;    0,000;62,50000
 883,45;  465,500;  436,000;    0,000;29,50000
 883,77;  488,500;  436,500;    0,000;52,00000
 884,08;  432,500;  467,000;    0,000;-34,50000
 884,40;  446,500;  444,500;    0,000; 2,00000
 884,72;  438,000;  464,500;    0,000;-26,50000
 885,03;  438,500;  446,500;    0,000;-8,00000
 885,35;  508,000;  445,000;    0,000;63,00000
 885,66;  454,000;  436,500;    0,000;17,50000
 885,98;  481,000;  462,000;    0,000;19,00000
 886,29;  442,500;  424,000;    0,000;18,50000
 886,61;  476,000;  405,000;    0,000;71,00000
 886,92;  457,000;  436,000;    0,000;21,00000
 887,24;  479,500;  442,000;    0,000;37,50000
 887,55;  433,000;  427,000;    0,000; 6,00000
 887,87;  500,000;  453,500;    0,000;46,50000
 888,19;  459,000;  390,500;    0,000;68,50000
 888,50;  477,000;  445,000;    0,000;32,00000
 888,82;  472,500;  399,000;    0,000;73,50000
 889,13;  427,500;  409,000;    0,000;18,50000
 889,45;  436,500;  382,500;    0,000;54,00000
 889,76;  488,500;  420,000;    0,000;68,50000
 890,08;  457,500;  397,000;    0,000;60,50000
 890,39;  473,000;  401,500;    0,000;71,50000
 890,71;  477,500;  392,000;    0,000;85,50000
 891,02;  444,000;  447,000;    0,000;-3,00000
 891,34;  468,000;  441,500;    0,000;26,50000
 891,65;  495,500;  421,000;    0,000;74,50000
 891,97;  477,000;  405,500;    0,000;71,50000
 892,28;  470,500;  436,500;    0,000;34,00000
 892,60;  468,000;  412,000;    0,000;56,00000
 892,91;  442,500;  458,500;    0,000;-16,00000
 893,23;  438,500;  411,000;    0,000;27,50000
 893,54;  448,000;  433,500;    0,000;14,50000
 893,86;  438,000;  442,000;    0,000;-4,00000
 894,17;  443,000;  426,000;    0,000;17,00000
 894,49;  437,000;  424,000;    0,000;13,00000
 894,80;  419,000;  373,500;    0,000;45,50000
 895,12;  456,500;  444,500;    0,000;12,00000
 895,43;  496,000;  420,000;    0,000;76,00000
 895,75;  419,500;  408,500;    0,000;11,00000
 896,06;  470,500;  394,500;    0,000;76,00000
 896,38;  427,500;  422,500;    0,000; 5,00000
 896,69;  436,000;  433,000;    0,000; 3,00000
 897,01;  464,000;  454,000;    0,000;10,00000
 897,32;  420,500;  437,000;    0,000;-16,50000
 897,64;  473,000;  398,000;    0,000;75,00000
 897,95;  475,500;  436,000;    0,000;39,50000
 898,27;  481,000;  431,000;    0,000;50,00000
 898,58;  476,000;  443,000;    0,000;33,00000
 898,90;  449,000;  409,500;    0,000;39,50000
 899,21;  475,500;  419,000;    0,000;56,50000
 899,53;  447,500;  383,000;    0,000;64,50000
 899,84;  472,500;  419,000;    0,000;53,50000
 900,16;  450,000;  409,500;    0,000;40,50000
 900,47;  442,000;  453,500;    0,000;-11,50000
 900,79;  460,500;  452,500;    0,000; 8,00000
 901,10;  449,500;  431,000;    0,000;18,50000
 901,42;  497,000;  468,500;    0,000;28,50000
 901,73;  489,000;  405,500;    0,000;83,50000
 902,05;  479,500;  391,500;    0,000;88,00000
 902,36;  483,000;  422,000;    0,000;61,00000
 902,68;  484,500;  451,000;    0,000;33,50000
 902,99;  467,000;  409,000;    0,000;58,00000
 903,30;  457,500;  426,500;    0,000;31,00000
 903,62;  483,500;  388,500;    0,000;95,00000
 903,93;  476,500;  450,500;    0,000;26,00000
 904,25;  498,000;  409,500;    0,000;88,50000
 904,56;  451,000;  437,000;    0,000;14,00000
 904,88;  483,500;  450,000;    0,000;33,50000
 905,19;  465,500;  414,000;    0,000;51,50000
 905,51;  423,000;  461,000;    0,000;-38,00000
 905,82;  399,500;  439,500;    0,000;-40,00000
 906,14;  478,500;  432,000;    0,000;46,50000
 906,45;  505,500;  390,000;    0,000;115,50000
 906,76;  450,500;  442,500;    0,000; 8,00000
 907,08;  459,500;  426,500;    0,000;33,00000
 907,39;  486,500;  439,500;    0,000;47,00000
 907,71;  495,000;  445,500;    0,000;49,50000
 908,02;  483,500;  407,500;    0,000;76,00000
 908,34;  435,000;  394,000;    0,000;41,00000
 908,65;  459,500;  439,000;    0,000;20,50000
 908,96;  474,000;  427,500;    0,000;46,50000
 909,28;  474,000;  423,500;    0,000;50,50000
 909,59;  447,500;  430,500;    0,000;17,00000
 909,91;  467,500;  445,500;    0,000;22,00000
 910,22;  480,500;  461,500;    0,000;19,00000
 910,54;  475,000;  411,500;    0,000;63,50000
 910,85;  462,500;  402,500;    0,000;60,00000
 911,16;  504,500;  457,000;    0,000;47,50000
 911,48;  442,500;  396,500;    0,000;46,00000
 911,79;  435,000;  442,500;    0,000;-7,50000
 912,11;  462,500;  390,500;    0,000;72,00000
 912,42;  458,000;  388,000;    0,000;70,00000
 912,74;  465,000;  413,500;    0,000;51,50000
 913,05;  448,000;  406,000;    0,000;42,00000
 913,36;  496,500;  405,000;    0,000;91,50000
 913,68;  463,000;  443,000;    0,000;20,00000
 913,99;  481,000;  435,500;    0,000;45,50000
 914,31;  468,000;  404,500;    0,000;63,50000
 914,62;  464,500;  386,000;    0,000;78,50000
 914,93;  465,000;  416,000;    0,000;49,00000
 915,25;  525,500;  436,500;    0,000;89,00000
 915,56;  465,500;  414,500;    0,000;51,00000
 915,88;  473,500;  443,000;    0,000;30,50000
 916,19;  459,000;  430,500;    0,000;28,50000
 916,50;  479,000;  457,500;    0,000;21,50000
 916,82;  461,500;  438,000;    0,000;23,50000
 917,13;  459,500;  440,000;    0,000;19,50000
 917,44;  452,500;  436,000;    0,000;16,50000
 917,76;  508,000;  401,000;    0,000;107,00000
 918,07;  491,000;  386,500;    0,000;104,50000
 918,39;  411,500;  418,000;    0,000;-6,50000
 918,70;  483,500;  431,000;    0,000;52,50000
 919,01;  451,000;  415,500;    0,000;35,50000
 919,33;  454,500;  433,500;    0,000;21,00000
 919,64;  438,000;  385,000;    0,000;53,00000
 919,96;  459,500;  412,500;    0,000;47,00000
 920,27;  468,500;  413,000;    0,000;55,50000
 920,58;  430,000;  376,500;    0,000;53,50000
 920,90;  489,000;  407,500;    0,000;81,50000
 921,21;  413,500;  430,500;    0,000;-17,00000
 921,52;  461,500;  389,000;    0,000;72,50000
 921,84;  504,000;  414,500;    0,000;89,50000
 922,15;  466,500;  464,000;    0,000; 2,50000
 922,46;  455,000;  423,500;    0,000;31,50000
 922,78;  473,500;  401,000;    0,000;72,50000
 923,09;  483,500;  385,000;    0,000;98,50000
 923,41;  419,500;  399,000;    0,000;20,50000
 923,72;  451,000;  471,000;    0,000;-20,00000
 924,03;  469,500;  416,500;    0,000;53,00000
 924,35;  458,500;  414,500;    0,000;44,00000
 924,66;  432,500;  423,000;    0,000; 9,50000
 924,97;  429,500;  434,500;    0,000;-5,00000
 925,29;  447,000;  392,000;    0,000;55,00000
 925,60;  456,500;  448,000;    0,000; 8,50000
 925,91;  468,000;  393,000;    0,000;75,00000
 926,23;  485,000;  396,500;    0,000;88,50000
 926,54;  508,500;  408,000;    0,000;100,50000
 926,85;  447,500;  429,000;    0,000;18,50000
 927,17;  413,000;  460,500;    0,000;-47,50000
 927,48;  454,000;  449,500;    0,000; 4,50000
 927,79;  499,500;  433,000;    0,000;66,50000
 928,11;  470,000;  385,500;    0,000;84,50000
 928,42;  452,500;  442,500;    0,000;10,00000
 928,73;  473,000;  438,000;    0,000;35,00000
 929,05;  466,000;  392,500;    0,000;73,50000
 929,36;  488,500;  427,500;    0,000;61,00000
 929,67;  502,500;  397,500;    0,000;105,00000
 929,99;  431,000;  399,000;    0,000;32,00000
 930,30;  480,500;  396,500;    0,000;84,00000
 930,61;  495,500;  384,000;    0,000;111,50000
 930,93;  479,000;  378,500;    0,000;100,50000
 931,24;  461,000;  383,500;    0,000;77,50000
 931,55;  474,500;  400,000;    0,000;74,50000
 931,87;  432,000;  439,000;    0,000;-7,00000
 932,18;  473,500;  446,500;    0,000;27,00000
 932,49;  479,000;  435,000;    0,000;44,00000
 932,81;  489,500;  461,500;    0,000;28,00000
 933,12;  456,000;  410,500;    0,000;45,50000
 933,43;  472,000;  422,000;    0,000;50,00000
 933,74;  423,500;  418,000;    0,000; 5,50000
 934,06;  432,000;  409,000;    0,000;23,00000
 934,37;  442,500;  384,500;    0,000;58,00000
 934,68;  408,000;  446,000;    0,000;-38,00000
 935,00;  483,000;  438,000;    0,000;45,00000
 935,31;  508,500;  428,000;    0,000;80,50000
 935,62;  498,500;  421,000;    0,000;77,50000
 935,94;  460,000;  395,000;    0,000;65,00000
 936,25;  467,000;  409,000;    0,000;58,00000
 936,56;  475,500;  438,500;    0,000;37,00000
 936,87;  491,000;  424,500;    0,000;66,50000
 937,19;  439,000;  376,000;    0,000;63,00000
 937,50;  461,000;  412,500;    0,000;48,50000
 937,81;  462,000;  368,500;    0,000;93,50000
 938,13;  493,500;  419,000;    0,000;74,50000
 938,44;  456,000;  448,000;    0,000; 8,00000
 938,75;  483,000;  418,500;    0,000;64,50000
 939,06;  428,500;  383,000;    0,000;45,50000
 939,38;  448,500;  421,000;    0,000;27,50000
 939,69;  457,500;  429,500;    0,000;28,00000
 940,00;  441,500;  437,000;    0,000; 4,50000
 940,31;  459,000;  427,000;    0,000;32,00000
 940,63;  444,000;  435,500;    0,000; 8,50000
 940,94;  500,000;  416,500;    0,000;83,50000
 941,25;  448,500;  450,500;    0,000;-2,00000
 941,57;  471,500;  384,000;    0,000;87,50000
 941,88;  455,000;  441,000;    0,000;14,00000
 942,19;  479,000;  417,500;    0,000;61,50000
 942,50;  432,500;  423,000;    0,000; 9,50000
 942,82;  487,000;  431,000;    0,000;56,00000
 943,13;  476,500;  435,000;    0,000;41,50000
 943,44;  466,000;  418,500;    0,000;47,50000
 943,75;  489,000;  421,500;    0,000;67,50000
 944,07;  514,000;  435,000;    0,000;79,00000
 944,38;  434,500;  422,000;    0,000;12,50000
 944,69;  467,000;  413,000;    0,000;54,00000
 945,00;  491,500;  391,000;    0,000;100,50000
 945,32;  437,000;  444,500;    0,000;-7,50000
 945,63;  421,000;  458,000;    0,000;-37,00000
 945,94;  485,000;  408,000;    0,000;77,00000
 946,25;  429,500;  433,000;    0,000;-3,50000
 946,56;  449,500;  417,000;    0,000;32,50000
 946,88;  511,000;  422,000;    0,000;89,00000
 947,19;  484,500;  408,000;    0,000;76,50000
 947,50;  431,500;  429,000;    0,000; 2,50000
 947,81;  496,500;  402,500;    0,000;94,00000
 948,13;  452,500;  448,500;    0,000; 4,00000
 948,44;  465,500;  471,500;    0,000;-6,00000
 948,75;  467,000;  423,500;    0,000;43,50000
 949,06;  502,500;  400,000;    0,000;102,50000
 949,38;  479,000;  389,000;    0,000;90,00000
 949,69;  504,000;  396,000;    0,000;108,00000
 950,00;  478,500;  443,500;    0,000;35,00000
 950,31;  485,500;  380,500;    0,000;105,00000
 950,62;  434,000;  427,500;    0,000; 6,50000
 950,94;  464,500;  436,000;    0,000;28,50000
 951,25;  453,500;  442,500;    0,000;11,00000
 951,56;  450,000;  431,500;    0,000;18,50000
 951,87;  469,500;  442,000;    0,000;27,50000
 952,18;  502,500;  392,500;    0,000;110,00000
 952,50;  476,000;  385,000;    0,000;91,00000
 952,81;  402,500;  413,000;    0,000;-10,50000
 953,12;  505,500;  419,500;    0,000;86,00000
 953,43;  432,500;  447,000;    0,000;-14,50000
 953,74;  462,000;  448,000;    0,000;14,00000
 954,06;  501,000;  463,000;    0,000;38,00000
 954,37;  441,000;  406,000;    0,000;35,00000
 954,68;  411,500;  433,500;    0,000;-22,00000
 954,99;  459,000;  407,500;    0,000;51,50000
 955,30;  478,000;  425,500;    0,000;52,50000
 955,62;  405,500;  424,000;    0,000;-18,50000
 955,93;  460,000;  419,500;    0,000;40,50000
 956,24;  482,500;  423,500;    0,000;59,00000
 956,55;  403,000;  398,500;    0,000; 4,50000
 956,86;  440,000;  462,500;    0,000;-22,50000
 957,18;  470,500;  388,500;    0,000;82,00000
 957,49;  448,000;  446,500;    0,000; 1,50000
 957,80;  427,000;  411,500;    0,000;15,50000
 958,11;  487,000;  421,000;    0,000;66,00000
 958,42;  484,000;  416,000;    0,000;68,00000
 958,73;  483,000;  386,000;    0,000;97,00000
 959,05;  485,000;  451,000;    0,000;34,00000
 959,36;  424,000;  393,500;    0,000;30,50000
 959,67;  457,000;  431,000;    0,000;26,00000
 959,98;  470,000;  401,000;    0,000;69,00000
 960,29;  446,500;  438,000;    0,000; 8,50000
 960,60;  448,500;  397,000;    0,000;51,50000
 960,92;  492,500;  445,500;    0,000;47,00000
 961,23;  454,500;  415,000;    0,000;39,50000
 961,54;  489,500;  400,500;    0,000;89,00000
 961,85;  438,000;  417,500;    0,000;20,50000
 962,16;  441,000;  416,500;    0,000;24,50000
 962,47;  472,000;  412,500;    0,000;59,50000
 962,79;  461,000;  408,000;    0,000;53,00000
 963,10;  468,500;  424,000;    0,000;44,50000
 963,41;  457,500;  403,500;    0,000;54,00000
 963,72;  430,000;  418,000;    0,000;12,00000
 964,03;  459,000;  369,000;    0,000;90,00000
 964,34;  465,000;  417,000;    0,000;48,00000
 964,65;  495,000;  398,000;    0,000;97,00000
 964,97;  476,500;  434,500;    0,000;42,00000
 965,28;  432,000;  434,500;    0,000;-2,50000
 965,59;  408,000;  461,500;    0,000;-53,50000
 965,90;  462,000;  414,000;    0,000;48,00000
 966,21;  440,000;  451,500;    0,000;-11,50000
 966,52;  468,000;  427,000;    0,000;41,00000
 966,83;  475,000;  394,000;    0,000;81,00000
 967,14;  479,500;  370,500;    0,000;109,00000
 967,46;  471,500;  418,000;    0,000;53,50000
 967,77;  491,500;  388,500;    0,000;103,00000
 968,08;  429,000;  439,000;    0,000;-10,00000
 968,39;  499,000;  391,500;    0,000;107,50000
 968,70;  427,500;  389,000;    0,000;38,50000
 969,01;  510,500;  406,500;    0,000;104,00000
 969,32;  465,500;  442,000;    0,000;23,50000
 969,63;  499,000;  415,500;    0,000;83,50000
 969,95;  474,500;  420,500;    0,000;54,00000
 970,26;  471,500;  410,000;    0,000;61,50000
 970,57;  443,000;  420,000;    0,000;23,00000
 970,88;  472,500;  429,000;    0,000;43,50000
 971,19;  507,500;  407,500;    0,000;100,00000
 971,50;  477,000;  436,000;    0,000;41,00000
 971,81;  438,500;  423,500;    0,000;15,00000
 972,12;  479,000;  438,500;    0,000;40,50000
 972,43;  483,000;  450,500;    0,000;32,50000
 972,75;  459,500;  420,500;    0,000;39,00000
 973,06;  442,000;  431,000;    0,000;11,00000
 973,37;  462,000;  443,500;    0,000;18,50000
 973,68;  451,000;  390,000;    0,000;61,00000
 973,99;  508,500;  446,000;    0,000;62,50000
 974,30;  485,500;  429,000;    0,000;56,50000
 974,61;  435,500;  455,500;    0,000;-20,00000
 974,92;  447,500;  415,500;    0,000;32,00000
 975,23;  440,500;  392,500;    0,000;48,00000
 975,54;  450,000;  430,500;    0,000;19,50000
 975,85;  474,500;  441,500;    0,000;33,00000
 976,16;  454,500;  453,500;    0,000; 1,00000
 976,48;  474,500;  441,500;    0,000;33,00000
 976,79;  456,000;  413,000;    0,000;43,00000
 977,10;  471,000;  402,000;    0,000;69,00000
 977,41;  476,000;  420,500;    0,000;55,50000
 977,72;  496,000;  395,500;    0,000;100,50000
 978,03;  491,000;  416,500;    0,000;74,50000
 978,34;  462,000;  436,000;    0,000;26,00000
 978,65;  484,000;  410,500;    0,000;73,50000
 978,96;  493,500;  415,000;    0,000;78,50000
 979,27;  468,000;  428,500;    0,000;39,50000
 979,58;  483,000;  491,000;    0,000;-8,00000
 979,89;  471,000;  405,500;    0,000;65,50000
 980,20;  511,000;  445,000;    0,000;66,00000
 980,51;  442,500;  405,500;    0,000;37,00000
 980,82;  465,500;  431,000;    0,000;34,50000
 981,14;  480,500;  466,500;    0,000;14,00000
 981,45;  504,500;  440,500;    0,000;64,00000
 981,76;  481,000;  398,500;    0,000;82,50000
 982,07;  459,000;  397,500;    0,000;61,50000
 982,38;  457,500;  437,000;    0,000;20,50000
 982,69;  472,000;  426,000;    0,000;46,00000
 983,00;  474,000;  452,000;    0,000;22,00000
 983,31;  488,500;  416,000;    0,000;72,50000
 983,62;  438,500;  433,500;    0,000; 5,00000
 983,93;  420,500;  426,500;    0,000;-6,00000
 984,24;  509,500;  435,000;    0,000;74,50000
 984,55;  492,000;  415,500;    0,000;76,50000
 984,86;  468,000;  401,500;    0,000;66,50000
 985,17;  448,000;  417,500;    0,000;30,50000
 985,48;  432,000;  419,000;    0,000;13,00000
 985,79;  485,500;  385,500;    0,000;100,00000
 986,10;  490,000;  427,500;    0,000;62,50000
 986,41;  445,000;  383,500;    0,000;61,50000
 986,72;  476,500;  470,500;    0,000; 6,00000
 987,03;  449,000;  381,500;    0,000;67,50000
 987,34;  457,500;  414,500;    0,000;43,00000
 987,65;  462,500;  401,500;    0,000;61,00000
 987,96;  440,500;  415,500;    0,000;25,00000
 988,27;  468,000;  383,000;    0,000;85,00000
 988,58;  442,500;  436,500;    0,000; 6,00000
 988,89;  481,500;  441,000;    0,000;40,50000
 989,20;  481,000;  401,500;    0,000;79,50000
 989,51;  435,000;  420,500;    0,000;14,50000
 989,82;  495,000;  458,500;    0,000;36,50000
 990,13;  474,000;  445,000;    0,000;29,00000
 990,44;  451,500;  419,500;    0,000;32,00000
 990,75;  462,500;  419,500;    0,000;43,00000
 991,06;  440,000;  397,000;    0,000;43,00000
 991,37;  452,500;  433,000;    0,000;19,50000
 991,68;  502,500;  444,000;    0,000;58,50000
 991,99;  460,500;  402,500;    0,000;58,00000
 992,30;  436,000;  418,500;    0,000;17,50000
 992,61;  411,500;  479,000;    0,000;-67,50000
 992,92;  478,000;  413,000;    0,000;65,00000
 993,23;  451,000;  414,500;    0,000;36,50000
 993,54;  456,000;  392,000;    0,000;64,00000
 993,85;  441,000;  403,000;    0,000;38,00000
 994,16;  470,500;  438,000;    0,000;32,50000
 994,47;  493,000;  386,000;    0,000;107,00000
 994,78;  483,500;  414,000;    0,000;69,50000
 995,09;  485,500;  449,500;    0,000;36,00000
 995,40;  432,000;  412,000;    0,000;20,00000
 995,71;  468,000;  410,500;    0,000;57,50000
 996,02;  465,000;  414,500;    0,000;50,50000
 996,33;  472,500;  437,000;    0,000;35,50000
 996,64;  470,500;  459,500;    0,000;11,00000
 996,95;  495,000;  423,500;    0,000;71,50000
 997,26;  441,500;  409,000;    0,000;32,50000
 997,57;  447,500;  417,000;    0,000;30,50000
 997,88;  438,000;  452,000;    0,000;-14,00000
 998,19;  466,000;  373,500;    0,000;92,50000
 998,50;  500,000;  442,500;    0,000;57,50000
 998,81;  433,500;  482,500;    0,000;-49,00000
 999,12;  452,500;  436,500;    0,000;16,00000
 999,43;  468,000;  437,000;    0,000;31,00000
 999,74;  506,500;  436,500;    0,000;70,00000
1000,05;  465,000;  449,000;    0,000;16,00000
1000,36;  470,500;  365,000;    0,000;105,50000
1000,67;  455,000;  386,000;    0,000;69,00000
1000,97;  459,500;  515,500;    0,000;-56,00000
1001,28;  463,000;  436,000;    0,000;27,00000
1001,59;  481,500;  441,000;    0,000;40,50000
1001,90;  441,000;  418,500;    0,000;22,50000
1002,21;  463,000;  422,000;    0,000;41,00000
1002,52;  446,500;  426,500;    0,000;20,00000
1002,83;  458,500;  439,000;    0,000;19,50000
1003,14;  488,500;  467,000;    0,000;21,50000
1003,45;  447,500;  452,000;    0,000;-4,50000
1003,76;  446,000;  432,000;    0,000;14,00000
1004,07;  484,000;  444,000;    0,000;40,00000
1004,38;  455,000;  396,500;    0,000;58,50000
1004,69;  467,000;  417,500;    0,000;49,50000
1005,00;  470,500;  412,500;    0,000;58,00000
1005,31;  483,500;  441,500;    0,000;42,00000
1005,61;  479,500;  416,500;    0,000;63,00000
1005,92;  509,500;  430,000;    0,000;79,50000
1006,23;  452,000;  395,500;    0,000;56,50000
1006,54;  484,000;  472,000;    0,000;12,00000
1006,85;  465,500;  414,500;    0,000;51,00000
1007,16;  457,500;  428,000;    0,000;29,50000
1007,47;  466,500;  418,500;    0,000;48,00000
1007,78;  416,500;  385,500;    0,000;31,00000
1008,09;  471,500;  441,000;    0,000;30,50000
1008,40;  487,500;  407,000;    0,000;80,50000
1008,71;  476,500;  400,000;    0,000;76,50000
1009,01;  496,000;  396,000;    0,000;100,00000
1009,32;  469,000;  408,500;    0,000;60,50000
1009,63;  497,500;  391,500;    0,000;106,00000
1009,94;  488,500;  443,000;    0,000;45,50000
1010,25;  482,000;  369,500;    0,000;112,50000
1010,56;  485,500;  395,000;    0,000;90,50000
1010,87;  429,500;  415,000;    0,000;14,50000
1011,18;  492,500;  457,500;    0,000;35,00000
1011,49;  463,000;  382,500;    0,000;80,50000
1011,79;  471,500;  443,500;    0,000;28,00000
1012,10;  494,500;  420,000;    0,000;74,50000
1012,41;  489,500;  394,000;    0,000;95,50000
1012,72;  455,000;  453,500;    0,000; 1,50000
1013,03;  446,500;  422,000;    0,000;24,50000
1013,34;  450,500;  466,500;    0,000;-16,00000
1013,65;  471,000;  411,500;    0,000;59,50000
1013,96;  450,500;  415,500;    0,000;35,00000
1014,27;  493,500;  382,500;    0,000;111,00000
1014,57;  464,000;  408,000;    0,000;56,00000
1014,88;  469,000;  435,000;    0,000;34,00000
1015,19;  470,000;  444,500;    0,000;25,50000
1015,50;  506,000;  448,500;    0,000;57,50000
1015,81;  492,500;  437,000;    0,000;55,50000
1016,12;  504,500;  386,500;    0,000;118,00000
1016,43;  503,000;  386,500;    0,000;116,50000
1016,73;  461,500;  465,000;    0,000;-3,50000
1017,04;  437,000;  415,000;    0,000;22,00000
1017,35;  453,000;  433,500;    0,000;19,50000
1017,66;  489,000;  424,000;    0,000;65,00000
1017,97;  445,500;  401,000;    0,000;44,50000
1018,28;  462,500;  450,500;    0,000;12,00000
1018,59;  464,000;  415,500;    0,000;48,50000
1018,89;  457,000;  378,500;    0,000;78,50000
1019,20;  468,500;  429,500;    0,000;39,00000
1019,51;  478,500;  432,000;    0,000;46,50000
1019,82;  455,000;  434,000;    0,000;21,00000
1020,13;  467,000;  453,500;    0,000;13,50000
1020,44;  470,000;  436,000;    0,000;34,00000
1020,74;  519,000;  381,500;    0,000;137,50000
1021,05;  475,000;  426,000;    0,000;49,00000
1021,36;  433,000;  404,500;    0,000;28,50000
1021,67;  436,500;  436,500;    0,000; 0,00000
1021,98;  422,500;  411,000;    0,000;11,50000
1022,29;  468,000;  405,500;    0,000;62,50000
1022,59;  454,500;  428,000;    0,000;26,50000
1022,90;  491,500;  416,000;    0,000;75,50000
1023,21;  485,000;  472,000;    0,000;13,00000
1023,52;  452,000;  416,000;    0,000;36,00000
1023,83;  450,500;  425,500;    0,000;25,00000
1024,14;  448,000;  443,000;    0,000; 5,00000
1024,44;  466,500;  391,000;    0,000;75,50000
1024,75;  457,500;  446,000;    0,000;11,50000
1025,06;  492,500;  446,000;    0,000;46,50000
1025,37;  489,000;  438,500;    0,000;50,50000
1025,68;  455,500;  430,500;    0,000;25,00000
1025,98;  400,000;  467,000;    0,000;-67,00000
1026,29;  456,500;  451,500;    0,000; 5,00000
1026,60;  432,000;  449,500;    0,000;-17,50000
1026,91;  449,500;  390,000;    0,000;59,50000
1027,22;  489,500;  424,000;    0,000;65,50000
1027,52;  468,000;  424,500;    0,000;43,50000
1027,83;  430,000;  439,500;    0,000;-9,50000
1028,14;  423,000;  414,500;    0,000; 8,50000
1028,45;  488,500;  439,000;    0,000;49,50000
1028,76;  443,500;  427,000;    0,000;16,50000
1029,06;  441,000;  488,000;    0,000;-47,00000
1029,37;  459,000;  380,500;    0,000;78,50000
1029,68;  493,000;  433,000;    0,000;60,00000
1029,99;  497,000;  453,500;    0,000;43,50000
1030,30;  433,500;  412,000;    0,000;21,50000
1030,60;  455,000;  411,500;    0,000;43,50000
1030,91;  457,000;  397,000;    0,000;60,00000
1031,22;  501,500;  469,000;    0,000;32,50000
1031,53;  434,000;  420,500;    0,000;13,50000
1031,83;  483,500;  473,000;    0,000;10,50000
1032,14;  469,500;  466,500;    0,000; 3,00000
1032,45;  454,000;  423,500;    0,000;30,50000
1032,76;  446,500;  399,000;    0,000;47,50000
1033,07;  471,500;  424,000;    0,000;47,50000
1033,37;  481,500;  413,000;    0,000;68,50000
1033,68;  509,500;  415,000;    0,000;94,50000
1033,99;  504,000;  421,500;    0,000;82,50000
1034,30;  476,000;  440,000;    0,000;36,00000
1034,60;  429,500;  429,500;    0,000; 0,00000
1034,91;  469,500;  448,500;    0,000;21,00000
1035,22;  436,500;  409,500;    0,000;27,00000
1035,53;  461,500;  421,500;    0,000;40,00000
1035,83;  476,000;  447,500;    0,000;28,50000
1036,14;  456,500;  495,500;    0,000;-39,00000
1036,45;  468,500;  474,000;    0,000;-5,50000
1036,76;  456,000;  456,500;    0,000;-0,50000
1037,06;  451,500;  436,500;    0,000;15,00000
1037,37;  446,000;  463,500;    0,000;-17,50000
1037,68;  480,000;  488,500;    0,000;-8,50000
1037,99;  484,000;  481,000;    0,000; 3,00000
1038,29;  427,000;  494,000;    0,000;-67,00000
1038,60;  447,500;  458,000;    0,000;-10,50000
1038,91;  421,000;  434,500;    0,000;-13,50000
1039,22;  476,000;  427,000;    0,000;49,00000
1039,52;  476,000;  402,000;    0,000;74,00000
1039,83;  425,000;  491,500;    0,000;-66,50000
1040,14;  451,500;  470,500;    0,000;-19,00000
1040,44;  434,000;  434,000;    0,000; 0,00000
1040,75;  440,500;  454,500;    0,000;-14,00000
1041,06;  495,500;  473,000;    0,000;22,50000
1041,37;  444,000;  414,500;    0,000;29,50000
1041,67;  510,500;  445,000;    0,000;65,50000
1041,98;  464,500;  440,500;    0,000;24,00000
1042,29;  429,000;  403,000;    0,000;26,00000
1042,59;  497,500;  454,000;    0,000;43,50000
1042,90;  453,000;  463,000;    0,000;-10,00000
1043,21;  451,000;  445,500;    0,000; 5,50000
1043,52;  480,000;  420,000;    0,000;60,00000
1043,82;  450,000;  435,000;    0,000;15,00000
1044,13;  434,500;  417,500;    0,000;17,00000
1044,44;  462,000;  387,000;    0,000;75,00000
1044,74;  479,500;  400,500;    0,000;79,00000
1045,05;  441,000;  438,500;    0,000; 2,50000
1045,36;  451,500;  437,500;    0,000;14,00000
1045,67;  467,000;  436,500;    0,000;30,50000
1045,97;  435,000;  433,000;    0,000; 2,00000
1046,28;  466,500;  468,000;    0,000;-1,50000
1046,59;  442,000;  445,000;    0,000;-3,00000
1046,89;  444,500;  435,500;    0,000; 9,00000
1047,20;  468,000;  428,000;    0,000;40,00000
1047,51;  500,500;  409,000;    0,000;91,50000
1047,81;  474,000;  494,500;    0,000;-20,50000
1048,12;  452,000;  423,500;    0,000;28,50000
1048,43;  506,000;  471,500;    0,000;34,50000
1048,73;  404,000;  462,500;    0,000;-58,50000
1049,04;  483,000;  434,500;    0,000;48,50000
1049,35;  428,000;  447,000;    0,000;-19,00000
1049,65;  468,500;  456,500;    0,000;12,00000
1049,96;  442,000;  473,500;    0,000;-31,50000
1050,27;  465,500;  434,000;    0,000;31,50000
1050,57;  461,000;  450,000;    0,000;11,00000
1050,88;  493,500;  446,000;    0,000;47,50000
1051,19;  496,000;  419,000;    0,000;77,00000
1051,49;  440,500;  441,500;    0,000;-1,00000
1051,80;  462,500;  416,000;    0,000;46,50000
1052,11;  427,500;  433,500;    0,000;-6,00000
1052,41;  455,500;  398,000;    0,000;57,50000
1052,72;  474,000;  456,500;    0,000;17,50000
1053,03;  452,000;  430,500;    0,000;21,50000
1053,33;  449,000;  369,500;    0,000;79,50000
1053,64;  461,500;  475,500;    0,000;-14,00000
1053,95;  434,500;  426,000;    0,000; 8,50000
1054,25;  484,500;  384,000;    0,000;100,50000
1054,56;  470,500;  436,000;    0,000;34,50000
1054,87;  462,000;  400,500;    0,000;61,50000
1055,17;  448,500;  446,500;    0,000; 2,00000
1055,48;  442,000;  441,000;    0,000; 1,00000
1055,79;  437,000;  439,000;    0,000;-2,00000
1056,09;  506,000;  399,500;    0,000;106,50000
1056,40;  451,500;  504,000;    0,000;-52,50000
1056,70;  453,000;  414,000;    0,000;39,00000
1057,01;  420,500;  397,000;    0,000;23,50000
1057,32;  479,500;  417,500;    0,000;62,00000
1057,62;  462,500;  419,500;    0,000;43,00000
1057,93;  495,500;  425,000;    0,000;70,50000
1058,24;  427,500;  408,500;    0,000;19,00000
1058,54;  484,000;  398,000;    0,000;86,00000
1058,85;  471,500;  402,500;    0,000;69,00000
1059,15;  481,000;  423,500;    0,000;57,50000
1059,46;  447,500;  423,500;    0,000;24,00000
1059,77;  422,500;  401,000;    0,000;21,50000
1060,07;  471,500;  485,500;    0,000;-14,00000
1060,38;  430,500;  406,000;    0,000;24,50000
1060,69;  439,500;  364,500;    0,000;75,00000
1060,99;  444,500;  411,500;    0,000;33,00000
1061,30;  481,000;  456,500;    0,000;24,50000
1061,60;  459,500;  396,500;    0,000;63,00000
1061,91;  456,000;  482,500;    0,000;-26,50000
1062,22;  485,500;  431,000;    0,000;54,50000
1062,52;  469,000;  383,500;    0,000;85,50000
1062,83;  501,500;  426,000;    0,000;75,50000
1063,13;  438,500;  429,000;    0,000; 9,50000
1063,44;  504,000;  433,000;    0,000;71,00000
1063,75;  467,500;  411,500;    0,000;56,00000
1064,05;  435,000;  463,500;    0,000;-28,50000
1064,36;  487,500;  462,500;    0,000;25,00000
1064,66;  434,000;  400,000;    0,000;34,00000
1064,97;  480,000;  421,000;    0,000;59,00000
1065,28;  465,500;  440,500;    0,000;25,00000
1065,58;  437,000;  423,500;    0,000;13,50000
1065,89;  460,500;  402,000;    0,000;58,50000
1066,19;  430,500;  428,500;    0,000; 2,00000
1066,50;  458,000;  443,500;    0,000;14,50000
1066,80;  448,500;  430,000;    0,000;18,50000
1067,11;  456,000;  438,500;    0,000;17,50000
1067,42;  486,000;  441,500;    0,000;44,50000
1067,72;  477,000;  482,000;    0,000;-5,00000
1068,03;  481,500;  395,500;    0,000;86,00000
1068,33;  460,000;  394,000;    0,000;66,00000
1068,64;  494,500;  412,000;    0,000;82,50000
1068,94;  436,500;  429,500;    0,000; 7,00000
1069,25;  483,500;  455,000;    0,000;28,50000
1069,56;  459,500;  375,500;    0,000;84,00000
1069,86;  491,000;  410,000;    0,000;81,00000
1070,17;  453,000;  415,500;    0,000;37,50000
1070,47;  509,000;  470,500;    0,000;38,50000
1070,78;  464,500;  453,500;    0,000;11,00000
1071,08;  431,500;  418,500;    0,000;13,00000
1071,39;  458,500;  436,500;    0,000;22,00000
1071,69;  453,000;  424,500;    0,000;28,50000
1072,00;  443,000;  420,000;    0,000;23,00000
1072,31;  449,000;  420,500;    0,000;28,50000
1072,61;  462,500;  437,000;    0,000;25,50000
1072,92;  458,000;  428,000;    0,000;30,00000
1073,22;  443,000;  418,000;    0,000;25,00000
1073,53;  451,000;  420,000;    0,000;31,00000
1073,83;  453,500;  476,000;    0,000;-22,50000
1074,14;  496,000;  492,000;    0,000; 4,00000
1074,44;  469,500;  432,000;    0,000;37,50000
1074,75;  462,500;  412,000;    0,000;50,50000
1075,05;  464,000;  439,500;    0,000;24,50000
1075,36;  443,500;  450,000;    0,000;-6,50000
1075,66;  433,000;  417,000;    0,000;16,00000
1075,97;  409,500;  415,000;    0,000;-5,50000
1076,27;  439,000;  416,500;    0,000;22,50000
1076,58;  467,500;  396,500;    0,000;71,00000
1076,88;  453,500;  426,500;    0,000;27,00000
1077,19;  447,500;  395,000;    0,000;52,50000
1077,50;  477,500;  460,500;    0,000;17,00000
1077,80;  461,500;  434,000;    0,000;27,50000
1078,11;  482,500;  448,000;    0,000;34,50000
1078,41;  436,500;  432,000;    0,000; 4,50000
1078,72;  473,500;  402,500;    0,000;71,00000
1079,02;  417,500;  400,000;    0,000;17,50000
1079,33;  476,500;  400,500;    0,000;76,00000
1079,63;  487,000;  412,000;    0,000;75,00000
1079,94;  456,000;  418,500;    0,000;37,50000
1080,24;  516,500;  427,000;    0,000;89,50000
1080,55;  456,500;  402,000;    0,000;54,50000
1080,85;  497,000;  452,000;    0,000;45,00000
1081,16;  445,500;  436,000;    0,000; 9,50000
1081,46;  473,000;  464,000;    0,000; 9,00000
1081,77;  446,000;  439,500;    0,000; 6,50000
1082,07;  472,000;  456,000;    0,000;16,00000
1082,38;  449,500;  433,000;    0,000;16,50000
1082,68;  462,500;  396,500;    0,000;66,00000
1082,98;  438,500;  391,500;    0,000;47,00000
1083,29;  438,500;  400,500;    0,000;38,00000
1083,59;  477,000;  417,500;    0,000;59,50000
1083,90;  472,500;  413,500;    0,000;59,00000
1084,20;  461,000;  386,000;    0,000;75,00000
1084,51;  480,000;  455,500;    0,000;24,50000
1084,81;  447,000;  431,000;    0,000;16,00000
1085,12;  460,000;  411,500;    0,000;48,50000
1085,42;  472,000;  451,500;    0,000;20,50000
1085,73;  488,000;  414,000;    0,000;74,00000
1086,03;  427,000;  447,500;    0,000;-20,50000
1086,34;  474,500;  402,500;    0,000;72,00000
1086,64;  437,500;  438,500;    0,000;-1,00000
1086,95;  462,000;  415,500;    0,000;46,50000
1087,25;  443,500;  442,000;    0,000; 1,50000
1087,56;  443,000;  428,500;    0,000;14,50000
1087,86;  478,000;  413,000;    0,000;65,00000
1088,16;  411,500;  408,000;    0,000; 3,50000
1088,47;  421,000;  419,500;    0,000; 1,50000
1088,77;  477,500;  412,000;    0,000;65,50000
1089,08;  498,500;  411,000;    0,000;87,50000
1089,38;  493,500;  423,000;    0,000;70,50000
1089,69;  460,500;  430,500;    0,000;30,00000
1089,99;  424,000;  439,500;    0,000;-15,50000
1090,30;  448,500;  458,000;    0,000;-9,50000
1090,60;  445,000;  371,000;    0,000;74,00000
1090,90;  480,500;  440,500;    0,000;40,00000
1091,21;  493,000;  417,000;    0,000;76,00000
1091,51;  453,500;  370,500;    0,000;83,00000
1091,82;  433,000;  461,500;    0,000;-28,50000
1092,12;  428,000;  417,000;    0,000;11,00000
1092,43;  485,000;  405,000;    0,000;80,00000
1092,73;  457,000;  379,000;    0,000;78,00000
1093,03;  428,500;  436,000;    0,000;-7,50000
1093,34;  416,500;  420,500;    0,000;-4,00000
1093,64;  439,000;  447,000;    0,000;-8,00000
1093,95;  438,000;  456,500;    0,000;-18,50000
1094,25;  444,500;  396,000;    0,000;48,50000
1094,56;  436,000;  431,500;    0,000; 4,50000
1094,86;  466,000;  412,000;    0,000;54,00000
1095,16;  462,000;  410,000;    0,000;52,00000
1095,47;  498,500;  437,000;    0,000;61,50000
1095,77;  472,000;  465,000;    0,000; 7,00000
1096,08;  481,500;  392,500;    0,000;89,00000
1096,38;  452,000;  436,500;    0,000;15,50000
1096,68;  441,500;  429,500;    0,000;12,00000
1096,99;  453,000;  419,000;    0,000;34,00000
1097,29;  466,500;  424,500;    0,000;42,00000
1097,60;  483,500;  417,000;    0,000;66,50000
1097,90;  440,500;  419,000;    0,000;21,50000
1098,20;  439,500;  424,500;    0,000;15,00000
1098,51;  473,500;  401,000;    0,000;72,50000
1098,81;  431,000;  424,000;    0,000; 7,00000
1099,12;  461,500;  415,500;    0,000;46,00000
1099,42;  446,000;  439,500;    0,000; 6,50000
1099,72;  474,500;  399,000;    0,000;75,50000
1100,03;  466,500;  453,500;    0,000;13,00000

