450nmdiode
Integration time [ms]:   2,000
Averaging Nr. [scans]: 2
Smoothing Nr. [pixels]: 0
Data measured with spectrometer [name]: 1005064U1
Wave   ;Sample   ;Dark     ;Reference;Scope Corrected for Dark
[nm]   ;[counts] ;[counts] ;[counts] 

 177,70;  501,000;  429,500;    0,000;71,50000
 178,04;  486,000;  472,000;    0,000;14,00000
 178,38;  456,500;  411,000;    0,000;45,50000
 178,73;  456,000;  431,500;    0,000;24,50000
 179,07;  456,000;  425,000;    0,000;31,00000
 179,41;  452,500;  456,500;    0,000;-4,00000
 179,75;  487,500;  432,000;    0,000;55,50000
 180,09;  462,000;  416,000;    0,000;46,00000
 180,44;  435,500;  423,500;    0,000;12,00000
 180,78;  435,000;  428,000;    0,000; 7,00000
 181,12;  479,000;  481,000;    0,000;-2,00000
 181,46;  441,500;  421,500;    0,000;20,00000
 181,81;  458,500;  406,000;    0,000;52,50000
 182,15;  428,500;  387,500;    0,000;41,00000
 182,49;  467,000;  403,500;    0,000;63,50000
 182,83;  463,500;  392,000;    0,000;71,50000
 183,17;  445,500;  392,500;    0,000;53,00000
 183,52;  456,000;  380,000;    0,000;76,00000
 183,86;  430,000;  416,500;    0,000;13,50000
 184,20;  411,500;  435,500;    0,000;-24,00000
 184,54;  426,500;  429,000;    0,000;-2,50000
 184,88;  448,500;  440,000;    0,000; 8,50000
 185,23;  472,500;  389,500;    0,000;83,00000
 185,57;  509,500;  397,000;    0,000;112,50000
 185,91;  462,500;  430,500;    0,000;32,00000
 186,25;  451,000;  411,000;    0,000;40,00000
 186,59;  490,000;  417,000;    0,000;73,00000
 186,94;  438,000;  434,500;    0,000; 3,50000
 187,28;  492,500;  414,500;    0,000;78,00000
 187,62;  496,000;  397,000;    0,000;99,00000
 187,96;  441,000;  434,000;    0,000; 7,00000
 188,30;  487,500;  404,000;    0,000;83,50000
 188,65;  461,000;  445,000;    0,000;16,00000
 188,99;  454,000;  405,000;    0,000;49,00000
 189,33;  436,500;  428,000;    0,000; 8,50000
 189,67;  449,500;  403,500;    0,000;46,00000
 190,01;  478,500;  461,000;    0,000;17,50000
 190,36;  434,000;  452,000;    0,000;-18,00000
 190,70;  413,000;  429,000;    0,000;-16,00000
 191,04;  463,000;  402,500;    0,000;60,50000
 191,38;  466,500;  404,500;    0,000;62,00000
 191,72;  438,000;  436,000;    0,000; 2,00000
 192,07;  459,500;  449,000;    0,000;10,50000
 192,41;  465,500;  442,500;    0,000;23,00000
 192,75;  444,000;  410,000;    0,000;34,00000
 193,09;  421,000;  438,000;    0,000;-17,00000
 193,43;  458,000;  378,500;    0,000;79,50000
 193,78;  410,500;  431,500;    0,000;-21,00000
 194,12;  442,500;  432,000;    0,000;10,50000
 194,46;  472,500;  423,000;    0,000;49,50000
 194,80;  474,500;  408,500;    0,000;66,00000
 195,14;  492,000;  372,000;    0,000;120,00000
 195,48;  417,000;  443,500;    0,000;-26,50000
 195,83;  439,000;  410,500;    0,000;28,50000
 196,17;  457,000;  432,000;    0,000;25,00000
 196,51;  459,000;  433,000;    0,000;26,00000
 196,85;  465,000;  464,000;    0,000; 1,00000
 197,19;  447,500;  435,500;    0,000;12,00000
 197,53;  444,500;  416,000;    0,000;28,50000
 197,88;  449,500;  422,000;    0,000;27,50000
 198,22;  446,500;  432,500;    0,000;14,00000
 198,56;  470,500;  416,500;    0,000;54,00000
 198,90;  509,500;  440,500;    0,000;69,00000
 199,24;  457,000;  399,000;    0,000;58,00000
 199,59;  457,500;  439,500;    0,000;18,00000
 199,93;  456,000;  428,000;    0,000;28,00000
 200,27;  436,000;  390,000;    0,000;46,00000
 200,61;  474,500;  355,000;    0,000;119,50000
 200,95;  471,500;  409,000;    0,000;62,50000
 201,29;  433,500;  409,500;    0,000;24,00000
 201,63;  457,500;  452,000;    0,000; 5,50000
 201,98;  432,500;  446,500;    0,000;-14,00000
 202,32;  428,000;  418,000;    0,000;10,00000
 202,66;  430,500;  414,000;    0,000;16,50000
 203,00;  459,500;  379,500;    0,000;80,00000
 203,34;  475,500;  397,000;    0,000;78,50000
 203,68;  431,000;  402,000;    0,000;29,00000
 204,03;  450,000;  404,500;    0,000;45,50000
 204,37;  456,000;  425,500;    0,000;30,50000
 204,71;  470,500;  415,500;    0,000;55,00000
 205,05;  473,500;  415,000;    0,000;58,50000
 205,39;  524,500;  448,000;    0,000;76,50000
 205,73;  434,000;  438,000;    0,000;-4,00000
 206,08;  461,000;  408,500;    0,000;52,50000
 206,42;  495,000;  451,500;    0,000;43,50000
 206,76;  469,500;  386,500;    0,000;83,00000
 207,10;  411,000;  430,000;    0,000;-19,00000
 207,44;  458,500;  430,500;    0,000;28,00000
 207,78;  423,000;  411,000;    0,000;12,00000
 208,12;  474,000;  415,500;    0,000;58,50000
 208,47;  464,500;  409,000;    0,000;55,50000
 208,81;  442,500;  412,500;    0,000;30,00000
 209,15;  455,000;  455,000;    0,000; 0,00000
 209,49;  468,000;  388,500;    0,000;79,50000
 209,83;  443,500;  450,500;    0,000;-7,00000
 210,17;  439,000;  404,000;    0,000;35,00000
 210,51;  419,000;  429,000;    0,000;-10,00000
 210,86;  461,500;  393,000;    0,000;68,50000
 211,20;  475,500;  426,000;    0,000;49,50000
 211,54;  461,500;  438,000;    0,000;23,50000
 211,88;  453,500;  449,500;    0,000; 4,00000
 212,22;  453,500;  385,500;    0,000;68,00000
 212,56;  453,500;  407,500;    0,000;46,00000
 212,90;  436,500;  417,500;    0,000;19,00000
 213,24;  463,500;  436,500;    0,000;27,00000
 213,59;  417,500;  385,500;    0,000;32,00000
 213,93;  484,500;  421,500;    0,000;63,00000
 214,27;  480,500;  417,500;    0,000;63,00000
 214,61;  466,000;  439,500;    0,000;26,50000
 214,95;  456,500;  426,000;    0,000;30,50000
 215,29;  459,500;  413,500;    0,000;46,00000
 215,63;  453,000;  398,500;    0,000;54,50000
 215,97;  450,000;  420,500;    0,000;29,50000
 216,32;  434,500;  429,500;    0,000; 5,00000
 216,66;  491,000;  379,500;    0,000;111,50000
 217,00;  479,500;  420,500;    0,000;59,00000
 217,34;  484,000;  448,000;    0,000;36,00000
 217,68;  474,000;  425,000;    0,000;49,00000
 218,02;  463,000;  423,500;    0,000;39,50000
 218,36;  529,000;  427,500;    0,000;101,50000
 218,70;  426,500;  452,000;    0,000;-25,50000
 219,05;  500,500;  407,000;    0,000;93,50000
 219,39;  424,000;  448,500;    0,000;-24,50000
 219,73;  430,000;  388,500;    0,000;41,50000
 220,07;  457,000;  428,500;    0,000;28,50000
 220,41;  477,000;  397,000;    0,000;80,00000
 220,75;  475,000;  418,000;    0,000;57,00000
 221,09;  431,000;  397,000;    0,000;34,00000
 221,43;  449,000;  462,000;    0,000;-13,00000
 221,77;  444,000;  425,000;    0,000;19,00000
 222,12;  490,500;  399,000;    0,000;91,50000
 222,46;  464,000;  388,500;    0,000;75,50000
 222,80;  465,000;  443,000;    0,000;22,00000
 223,14;  457,000;  429,000;    0,000;28,00000
 223,48;  466,500;  401,500;    0,000;65,00000
 223,82;  467,000;  427,000;    0,000;40,00000
 224,16;  476,000;  419,000;    0,000;57,00000
 224,50;  401,500;  459,000;    0,000;-57,50000
 224,84;  481,500;  449,500;    0,000;32,00000
 225,18;  491,000;  430,500;    0,000;60,50000
 225,53;  487,500;  444,000;    0,000;43,50000
 225,87;  447,000;  425,500;    0,000;21,50000
 226,21;  456,500;  437,000;    0,000;19,50000
 226,55;  484,500;  425,500;    0,000;59,00000
 226,89;  485,000;  430,000;    0,000;55,00000
 227,23;  432,500;  416,500;    0,000;16,00000
 227,57;  474,500;  410,500;    0,000;64,00000
 227,91;  471,000;  426,500;    0,000;44,50000
 228,25;  445,000;  441,500;    0,000; 3,50000
 228,59;  440,000;  446,500;    0,000;-6,50000
 228,93;  422,000;  467,000;    0,000;-45,00000
 229,28;  423,000;  457,000;    0,000;-34,00000
 229,62;  444,500;  438,000;    0,000; 6,50000
 229,96;  467,000;  422,500;    0,000;44,50000
 230,30;  453,000;  438,000;    0,000;15,00000
 230,64;  465,500;  454,000;    0,000;11,50000
 230,98;  458,500;  437,000;    0,000;21,50000
 231,32;  442,000;  460,000;    0,000;-18,00000
 231,66;  443,000;  426,000;    0,000;17,00000
 232,00;  451,000;  421,500;    0,000;29,50000
 232,34;  454,500;  413,500;    0,000;41,00000
 232,68;  437,000;  445,500;    0,000;-8,50000
 233,02;  469,000;  399,000;    0,000;70,00000
 233,36;  428,500;  436,000;    0,000;-7,50000
 233,71;  434,500;  401,500;    0,000;33,00000
 234,05;  480,000;  412,500;    0,000;67,50000
 234,39;  468,000;  430,500;    0,000;37,50000
 234,73;  454,000;  421,500;    0,000;32,50000
 235,07;  464,000;  388,000;    0,000;76,00000
 235,41;  488,000;  429,500;    0,000;58,50000
 235,75;  488,500;  454,000;    0,000;34,50000
 236,09;  460,500;  448,000;    0,000;12,50000
 236,43;  471,000;  426,500;    0,000;44,50000
 236,77;  476,000;  423,500;    0,000;52,50000
 237,11;  498,500;  388,500;    0,000;110,00000
 237,45;  467,000;  432,500;    0,000;34,50000
 237,79;  466,000;  473,000;    0,000;-7,00000
 238,13;  462,000;  414,000;    0,000;48,00000
 238,47;  480,500;  405,500;    0,000;75,00000
 238,82;  473,000;  424,000;    0,000;49,00000
 239,16;  480,500;  466,000;    0,000;14,50000
 239,50;  469,500;  384,500;    0,000;85,00000
 239,84;  456,500;  385,500;    0,000;71,00000
 240,18;  464,000;  477,500;    0,000;-13,50000
 240,52;  446,000;  418,500;    0,000;27,50000
 240,86;  484,000;  413,500;    0,000;70,50000
 241,20;  438,500;  432,000;    0,000; 6,50000
 241,54;  459,000;  435,500;    0,000;23,50000
 241,88;  437,500;  416,500;    0,000;21,00000
 242,22;  442,500;  444,000;    0,000;-1,50000
 242,56;  470,000;  359,500;    0,000;110,50000
 242,90;  440,000;  417,000;    0,000;23,00000
 243,24;  448,500;  422,500;    0,000;26,00000
 243,58;  478,500;  430,000;    0,000;48,50000
 243,92;  447,000;  451,000;    0,000;-4,00000
 244,26;  425,500;  394,500;    0,000;31,00000
 244,60;  463,000;  382,500;    0,000;80,50000
 244,94;  410,000;  405,000;    0,000; 5,00000
 245,28;  456,000;  444,500;    0,000;11,50000
 245,62;  369,500;  401,500;    0,000;-32,00000
 245,97;  455,500;  418,000;    0,000;37,50000
 246,31;  507,000;  395,000;    0,000;112,00000
 246,65;  479,500;  406,000;    0,000;73,50000
 246,99;  428,000;  436,000;    0,000;-8,00000
 247,33;  452,500;  432,500;    0,000;20,00000
 247,67;  469,500;  412,500;    0,000;57,00000
 248,01;  438,500;  420,000;    0,000;18,50000
 248,35;  480,500;  392,000;    0,000;88,50000
 248,69;  421,500;  423,500;    0,000;-2,00000
 249,03;  477,000;  451,000;    0,000;26,00000
 249,37;  443,500;  457,000;    0,000;-13,50000
 249,71;  457,000;  432,000;    0,000;25,00000
 250,05;  459,000;  425,000;    0,000;34,00000
 250,39;  435,500;  399,500;    0,000;36,00000
 250,73;  448,000;  428,500;    0,000;19,50000
 251,07;  437,500;  408,500;    0,000;29,00000
 251,41;  487,000;  392,000;    0,000;95,00000
 251,75;  456,000;  424,000;    0,000;32,00000
 252,09;  434,500;  429,500;    0,000; 5,00000
 252,43;  463,000;  414,000;    0,000;49,00000
 252,77;  487,500;  421,000;    0,000;66,50000
 253,11;  459,500;  416,000;    0,000;43,50000
 253,45;  422,500;  437,000;    0,000;-14,50000
 253,79;  431,000;  438,500;    0,000;-7,50000
 254,13;  437,000;  451,500;    0,000;-14,50000
 254,47;  454,500;  380,000;    0,000;74,50000
 254,81;  485,500;  428,500;    0,000;57,00000
 255,15;  444,000;  388,500;    0,000;55,50000
 255,49;  463,500;  412,000;    0,000;51,50000
 255,83;  467,000;  404,500;    0,000;62,50000
 256,17;  470,000;  458,000;    0,000;12,00000
 256,51;  448,500;  447,000;    0,000; 1,50000
 256,85;  454,000;  413,000;    0,000;41,00000
 257,19;  485,500;  415,500;    0,000;70,00000
 257,53;  464,000;  464,000;    0,000; 0,00000
 257,87;  504,000;  426,500;    0,000;77,50000
 258,21;  459,000;  432,500;    0,000;26,50000
 258,55;  473,500;  444,500;    0,000;29,00000
 258,89;  440,500;  411,500;    0,000;29,00000
 259,23;  428,000;  396,500;    0,000;31,50000
 259,57;  479,000;  432,000;    0,000;47,00000
 259,91;  458,000;  448,000;    0,000;10,00000
 260,25;  468,500;  409,000;    0,000;59,50000
 260,59;  477,000;  414,500;    0,000;62,50000
 260,93;  444,500;  449,000;    0,000;-4,50000
 261,27;  478,500;  404,500;    0,000;74,00000
 261,61;  427,500;  458,500;    0,000;-31,00000
 261,95;  462,000;  423,000;    0,000;39,00000
 262,29;  504,500;  444,000;    0,000;60,50000
 262,63;  457,000;  421,000;    0,000;36,00000
 262,97;  421,000;  434,000;    0,000;-13,00000
 263,31;  429,500;  475,000;    0,000;-45,50000
 263,65;  458,000;  395,500;    0,000;62,50000
 263,99;  403,000;  417,000;    0,000;-14,00000
 264,33;  475,000;  415,500;    0,000;59,50000
 264,67;  495,500;  454,500;    0,000;41,00000
 265,01;  462,500;  375,000;    0,000;87,50000
 265,35;  468,000;  403,500;    0,000;64,50000
 265,69;  423,500;  404,000;    0,000;19,50000
 266,03;  441,500;  451,500;    0,000;-10,00000
 266,37;  450,500;  423,000;    0,000;27,50000
 266,71;  451,000;  432,000;    0,000;19,00000
 267,05;  432,500;  427,500;    0,000; 5,00000
 267,39;  453,500;  414,500;    0,000;39,00000
 267,73;  445,500;  416,500;    0,000;29,00000
 268,07;  456,000;  417,500;    0,000;38,50000
 268,41;  451,500;  405,000;    0,000;46,50000
 268,75;  457,000;  446,500;    0,000;10,50000
 269,09;  518,500;  406,000;    0,000;112,50000
 269,43;  442,500;  390,000;    0,000;52,50000
 269,77;  450,000;  430,500;    0,000;19,50000
 270,11;  445,500;  423,500;    0,000;22,00000
 270,45;  451,000;  407,000;    0,000;44,00000
 270,79;  474,000;  427,000;    0,000;47,00000
 271,13;  445,000;  430,500;    0,000;14,50000
 271,47;  460,000;  389,000;    0,000;71,00000
 271,80;  448,500;  427,500;    0,000;21,00000
 272,14;  455,500;  456,000;    0,000;-0,50000
 272,48;  473,500;  390,000;    0,000;83,50000
 272,82;  407,000;  429,000;    0,000;-22,00000
 273,16;  425,000;  435,500;    0,000;-10,50000
 273,50;  457,000;  425,500;    0,000;31,50000
 273,84;  457,500;  428,500;    0,000;29,00000
 274,18;  498,500;  408,000;    0,000;90,50000
 274,52;  465,000;  440,000;    0,000;25,00000
 274,86;  484,000;  413,500;    0,000;70,50000
 275,20;  442,500;  422,500;    0,000;20,00000
 275,54;  456,500;  429,000;    0,000;27,50000
 275,88;  437,000;  419,500;    0,000;17,50000
 276,22;  487,500;  371,000;    0,000;116,50000
 276,56;  472,500;  435,500;    0,000;37,00000
 276,90;  462,000;  419,000;    0,000;43,00000
 277,24;  461,000;  409,000;    0,000;52,00000
 277,58;  432,000;  413,500;    0,000;18,50000
 277,92;  441,500;  399,000;    0,000;42,50000
 278,26;  468,000;  390,500;    0,000;77,50000
 278,60;  447,500;  417,000;    0,000;30,50000
 278,93;  417,000;  424,000;    0,000;-7,00000
 279,27;  463,500;  433,500;    0,000;30,00000
 279,61;  445,500;  411,500;    0,000;34,00000
 279,95;  491,500;  439,000;    0,000;52,50000
 280,29;  424,500;  413,500;    0,000;11,00000
 280,63;  417,500;  424,500;    0,000;-7,00000
 280,97;  428,500;  433,500;    0,000;-5,00000
 281,31;  449,500;  432,500;    0,000;17,00000
 281,65;  448,500;  408,500;    0,000;40,00000
 281,99;  470,000;  433,500;    0,000;36,50000
 282,33;  454,500;  420,000;    0,000;34,50000
 282,67;  451,000;  395,500;    0,000;55,50000
 283,01;  449,500;  435,000;    0,000;14,50000
 283,35;  461,000;  454,000;    0,000; 7,00000
 283,69;  440,000;  422,500;    0,000;17,50000
 284,02;  422,000;  467,500;    0,000;-45,50000
 284,36;  457,000;  417,500;    0,000;39,50000
 284,70;  429,500;  406,000;    0,000;23,50000
 285,04;  429,500;  447,000;    0,000;-17,50000
 285,38;  456,500;  418,000;    0,000;38,50000
 285,72;  407,000;  406,500;    0,000; 0,50000
 286,06;  422,500;  436,500;    0,000;-14,00000
 286,40;  428,500;  441,000;    0,000;-12,50000
 286,74;  474,500;  438,000;    0,000;36,50000
 287,08;  435,000;  408,500;    0,000;26,50000
 287,42;  456,500;  427,000;    0,000;29,50000
 287,76;  451,000;  400,000;    0,000;51,00000
 288,09;  472,000;  433,000;    0,000;39,00000
 288,43;  481,000;  430,500;    0,000;50,50000
 288,77;  487,000;  409,000;    0,000;78,00000
 289,11;  468,000;  438,000;    0,000;30,00000
 289,45;  450,500;  418,000;    0,000;32,50000
 289,79;  483,000;  405,500;    0,000;77,50000
 290,13;  486,500;  431,000;    0,000;55,50000
 290,47;  455,500;  453,500;    0,000; 2,00000
 290,81;  457,500;  432,000;    0,000;25,50000
 291,15;  525,000;  449,000;    0,000;76,00000
 291,49;  433,500;  395,500;    0,000;38,00000
 291,82;  484,000;  437,500;    0,000;46,50000
 292,16;  490,500;  390,500;    0,000;100,00000
 292,50;  467,500;  387,500;    0,000;80,00000
 292,84;  481,500;  430,500;    0,000;51,00000
 293,18;  450,500;  438,500;    0,000;12,00000
 293,52;  491,000;  444,500;    0,000;46,50000
 293,86;  491,000;  431,000;    0,000;60,00000
 294,20;  457,500;  423,500;    0,000;34,00000
 294,54;  432,500;  447,000;    0,000;-14,50000
 294,88;  455,000;  424,000;    0,000;31,00000
 295,21;  431,500;  440,000;    0,000;-8,50000
 295,55;  475,000;  395,500;    0,000;79,50000
 295,89;  443,500;  460,500;    0,000;-17,00000
 296,23;  490,000;  415,000;    0,000;75,00000
 296,57;  462,000;  447,000;    0,000;15,00000
 296,91;  463,500;  414,500;    0,000;49,00000
 297,25;  478,000;  412,500;    0,000;65,50000
 297,59;  449,500;  383,000;    0,000;66,50000
 297,93;  481,000;  445,500;    0,000;35,50000
 298,26;  454,500;  424,500;    0,000;30,00000
 298,60;  429,500;  424,000;    0,000; 5,50000
 298,94;  456,000;  413,000;    0,000;43,00000
 299,28;  437,500;  432,500;    0,000; 5,00000
 299,62;  493,500;  405,500;    0,000;88,00000
 299,96;  455,000;  390,000;    0,000;65,00000
 300,30;  465,500;  420,000;    0,000;45,50000
 300,64;  463,000;  399,000;    0,000;64,00000
 300,97;  468,500;  411,000;    0,000;57,50000
 301,31;  465,500;  483,500;    0,000;-18,00000
 301,65;  424,000;  458,000;    0,000;-34,00000
 301,99;  449,500;  400,500;    0,000;49,00000
 302,33;  444,000;  399,000;    0,000;45,00000
 302,67;  454,000;  462,500;    0,000;-8,50000
 303,01;  458,500;  443,500;    0,000;15,00000
 303,35;  487,500;  426,500;    0,000;61,00000
 303,68;  451,500;  433,000;    0,000;18,50000
 304,02;  437,000;  440,500;    0,000;-3,50000
 304,36;  446,000;  443,000;    0,000; 3,00000
 304,70;  386,000;  397,500;    0,000;-11,50000
 305,04;  442,500;  450,000;    0,000;-7,50000
 305,38;  482,500;  448,000;    0,000;34,50000
 305,72;  490,500;  403,000;    0,000;87,50000
 306,05;  449,000;  473,000;    0,000;-24,00000
 306,39;  473,000;  433,500;    0,000;39,50000
 306,73;  437,000;  394,000;    0,000;43,00000
 307,07;  470,000;  403,500;    0,000;66,50000
 307,41;  441,000;  393,000;    0,000;48,00000
 307,75;  444,000;  423,500;    0,000;20,50000
 308,09;  457,500;  421,500;    0,000;36,00000
 308,42;  442,500;  423,000;    0,000;19,50000
 308,76;  447,000;  362,500;    0,000;84,50000
 309,10;  455,000;  461,000;    0,000;-6,00000
 309,44;  502,000;  429,500;    0,000;72,50000
 309,78;  457,500;  452,500;    0,000; 5,00000
 310,12;  472,000;  425,500;    0,000;46,50000
 310,45;  434,000;  463,000;    0,000;-29,00000
 310,79;  421,500;  429,500;    0,000;-8,00000
 311,13;  461,500;  420,500;    0,000;41,00000
 311,47;  421,500;  402,000;    0,000;19,50000
 311,81;  477,500;  432,500;    0,000;45,00000
 312,15;  455,500;  419,500;    0,000;36,00000
 312,49;  461,500;  366,500;    0,000;95,00000
 312,82;  506,500;  405,000;    0,000;101,50000
 313,16;  486,500;  429,500;    0,000;57,00000
 313,50;  438,500;  437,000;    0,000; 1,50000
 313,84;  465,500;  446,500;    0,000;19,00000
 314,18;  491,500;  383,000;    0,000;108,50000
 314,52;  473,000;  388,500;    0,000;84,50000
 314,85;  468,000;  425,500;    0,000;42,50000
 315,19;  451,000;  415,500;    0,000;35,50000
 315,53;  443,500;  421,000;    0,000;22,50000
 315,87;  450,500;  422,000;    0,000;28,50000
 316,21;  485,000;  429,000;    0,000;56,00000
 316,55;  432,500;  416,500;    0,000;16,00000
 316,88;  471,500;  406,500;    0,000;65,00000
 317,22;  461,500;  369,000;    0,000;92,50000
 317,56;  423,000;  428,500;    0,000;-5,50000
 317,90;  432,000;  406,500;    0,000;25,50000
 318,24;  464,000;  439,000;    0,000;25,00000
 318,57;  454,500;  425,000;    0,000;29,50000
 318,91;  486,500;  435,000;    0,000;51,50000
 319,25;  482,000;  424,000;    0,000;58,00000
 319,59;  408,000;  440,000;    0,000;-32,00000
 319,93;  486,000;  413,500;    0,000;72,50000
 320,27;  418,000;  397,500;    0,000;20,50000
 320,60;  448,000;  446,000;    0,000; 2,00000
 320,94;  422,000;  431,500;    0,000;-9,50000
 321,28;  485,000;  399,500;    0,000;85,50000
 321,62;  427,000;  443,500;    0,000;-16,50000
 321,96;  440,500;  415,500;    0,000;25,00000
 322,29;  452,500;  405,000;    0,000;47,50000
 322,63;  450,500;  409,500;    0,000;41,00000
 322,97;  501,500;  398,500;    0,000;103,00000
 323,31;  489,500;  406,500;    0,000;83,00000
 323,65;  464,000;  412,500;    0,000;51,50000
 323,98;  471,000;  376,500;    0,000;94,50000
 324,32;  471,000;  397,500;    0,000;73,50000
 324,66;  475,500;  442,000;    0,000;33,50000
 325,00;  450,500;  397,000;    0,000;53,50000
 325,34;  433,500;  390,000;    0,000;43,50000
 325,67;  485,500;  398,000;    0,000;87,50000
 326,01;  476,500;  445,500;    0,000;31,00000
 326,35;  468,500;  398,500;    0,000;70,00000
 326,69;  428,000;  405,000;    0,000;23,00000
 327,03;  434,500;  431,000;    0,000; 3,50000
 327,36;  450,500;  437,500;    0,000;13,00000
 327,70;  494,000;  406,500;    0,000;87,50000
 328,04;  456,000;  418,000;    0,000;38,00000
 328,38;  444,000;  421,000;    0,000;23,00000
 328,72;  447,000;  425,000;    0,000;22,00000
 329,05;  433,000;  447,500;    0,000;-14,50000
 329,39;  453,500;  438,000;    0,000;15,50000
 329,73;  477,500;  390,500;    0,000;87,00000
 330,07;  491,500;  407,000;    0,000;84,50000
 330,41;  467,000;  462,000;    0,000; 5,00000
 330,74;  442,000;  435,500;    0,000; 6,50000
 331,08;  465,500;  444,000;    0,000;21,50000
 331,42;  446,500;  425,000;    0,000;21,50000
 331,76;  414,500;  435,000;    0,000;-20,50000
 332,09;  504,500;  441,500;    0,000;63,00000
 332,43;  473,500;  434,500;    0,000;39,00000
 332,77;  462,500;  423,500;    0,000;39,00000
 333,11;  459,000;  468,000;    0,000;-9,00000
 333,45;  450,000;  417,500;    0,000;32,50000
 333,78;  394,000;  432,500;    0,000;-38,50000
 334,12;  453,500;  429,000;    0,000;24,50000
 334,46;  481,000;  413,500;    0,000;67,50000
 334,80;  426,000;  421,000;    0,000; 5,00000
 335,13;  434,000;  438,500;    0,000;-4,50000
 335,47;  451,500;  425,000;    0,000;26,50000
 335,81;  447,500;  439,500;    0,000; 8,00000
 336,15;  455,000;  458,500;    0,000;-3,50000
 336,48;  465,000;  402,500;    0,000;62,50000
 336,82;  478,500;  433,000;    0,000;45,50000
 337,16;  419,500;  450,500;    0,000;-31,00000
 337,50;  443,500;  391,500;    0,000;52,00000
 337,84;  468,500;  406,000;    0,000;62,50000
 338,17;  470,500;  440,000;    0,000;30,50000
 338,51;  437,000;  441,000;    0,000;-4,00000
 338,85;  489,500;  393,000;    0,000;96,50000
 339,19;  411,500;  424,500;    0,000;-13,00000
 339,52;  424,000;  396,500;    0,000;27,50000
 339,86;  435,000;  422,500;    0,000;12,50000
 340,20;  471,000;  394,500;    0,000;76,50000
 340,54;  430,500;  417,500;    0,000;13,00000
 340,87;  475,500;  441,000;    0,000;34,50000
 341,21;  485,500;  471,000;    0,000;14,50000
 341,55;  463,500;  405,000;    0,000;58,50000
 341,89;  461,000;  464,000;    0,000;-3,00000
 342,22;  428,000;  511,500;    0,000;-83,50000
 342,56;  446,500;  377,500;    0,000;69,00000
 342,90;  449,500;  428,500;    0,000;21,00000
 343,24;  469,500;  392,500;    0,000;77,00000
 343,57;  389,000;  382,000;    0,000; 7,00000
 343,91;  492,500;  437,500;    0,000;55,00000
 344,25;  465,000;  423,500;    0,000;41,50000
 344,59;  448,500;  404,000;    0,000;44,50000
 344,92;  412,500;  403,000;    0,000; 9,50000
 345,26;  473,000;  443,000;    0,000;30,00000
 345,60;  503,000;  405,500;    0,000;97,50000
 345,93;  441,500;  422,500;    0,000;19,00000
 346,27;  446,000;  451,000;    0,000;-5,00000
 346,61;  466,000;  409,500;    0,000;56,50000
 346,95;  479,000;  397,500;    0,000;81,50000
 347,28;  484,500;  429,500;    0,000;55,00000
 347,62;  451,500;  396,000;    0,000;55,50000
 347,96;  455,500;  448,000;    0,000; 7,50000
 348,30;  468,500;  417,500;    0,000;51,00000
 348,63;  445,500;  451,500;    0,000;-6,00000
 348,97;  445,000;  406,500;    0,000;38,50000
 349,31;  449,500;  433,000;    0,000;16,50000
 349,64;  454,500;  414,500;    0,000;40,00000
 349,98;  451,000;  482,500;    0,000;-31,50000
 350,32;  431,500;  450,500;    0,000;-19,00000
 350,66;  468,500;  402,000;    0,000;66,50000
 350,99;  444,500;  441,500;    0,000; 3,00000
 351,33;  440,000;  405,000;    0,000;35,00000
 351,67;  472,500;  454,000;    0,000;18,50000
 352,00;  446,500;  410,000;    0,000;36,50000
 352,34;  464,000;  440,500;    0,000;23,50000
 352,68;  474,000;  438,500;    0,000;35,50000
 353,02;  447,500;  477,500;    0,000;-30,00000
 353,35;  472,000;  437,500;    0,000;34,50000
 353,69;  453,000;  422,000;    0,000;31,00000
 354,03;  439,000;  394,000;    0,000;45,00000
 354,36;  462,500;  420,000;    0,000;42,50000
 354,70;  441,500;  419,500;    0,000;22,00000
 355,04;  458,500;  393,500;    0,000;65,00000
 355,38;  422,500;  430,500;    0,000;-8,00000
 355,71;  456,000;  420,000;    0,000;36,00000
 356,05;  449,000;  395,500;    0,000;53,50000
 356,39;  458,500;  427,500;    0,000;31,00000
 356,72;  454,000;  398,500;    0,000;55,50000
 357,06;  481,000;  421,000;    0,000;60,00000
 357,40;  498,000;  447,000;    0,000;51,00000
 357,73;  465,000;  399,500;    0,000;65,50000
 358,07;  515,000;  439,500;    0,000;75,50000
 358,41;  419,500;  409,000;    0,000;10,50000
 358,75;  414,500;  423,500;    0,000;-9,00000
 359,08;  451,000;  444,000;    0,000; 7,00000
 359,42;  413,000;  401,500;    0,000;11,50000
 359,76;  430,000;  365,500;    0,000;64,50000
 360,09;  465,500;  409,500;    0,000;56,00000
 360,43;  446,000;  357,500;    0,000;88,50000
 360,77;  434,000;  383,000;    0,000;51,00000
 361,10;  425,000;  387,500;    0,000;37,50000
 361,44;  489,500;  429,500;    0,000;60,00000
 361,78;  469,500;  428,500;    0,000;41,00000
 362,11;  396,500;  414,500;    0,000;-18,00000
 362,45;  464,500;  427,500;    0,000;37,00000
 362,79;  478,000;  377,500;    0,000;100,50000
 363,12;  469,500;  423,500;    0,000;46,00000
 363,46;  420,500;  427,000;    0,000;-6,50000
 363,80;  474,000;  392,000;    0,000;82,00000
 364,14;  436,000;  418,500;    0,000;17,50000
 364,47;  422,000;  422,500;    0,000;-0,50000
 364,81;  424,500;  427,500;    0,000;-3,00000
 365,15;  449,000;  434,000;    0,000;15,00000
 365,48;  448,000;  444,500;    0,000; 3,50000
 365,82;  491,500;  422,000;    0,000;69,50000
 366,16;  458,500;  424,000;    0,000;34,50000
 366,49;  482,000;  439,500;    0,000;42,50000
 366,83;  459,500;  422,500;    0,000;37,00000
 367,17;  443,500;  434,000;    0,000; 9,50000
 367,50;  447,500;  415,500;    0,000;32,00000
 367,84;  447,000;  413,000;    0,000;34,00000
 368,18;  466,000;  398,500;    0,000;67,50000
 368,51;  461,500;  388,000;    0,000;73,50000
 368,85;  466,500;  422,000;    0,000;44,50000
 369,19;  440,500;  475,500;    0,000;-35,00000
 369,52;  474,500;  436,000;    0,000;38,50000
 369,86;  464,000;  448,000;    0,000;16,00000
 370,20;  477,500;  437,000;    0,000;40,50000
 370,53;  467,000;  444,000;    0,000;23,00000
 370,87;  466,000;  503,500;    0,000;-37,50000
 371,20;  478,000;  416,500;    0,000;61,50000
 371,54;  464,500;  436,000;    0,000;28,50000
 371,88;  489,500;  418,500;    0,000;71,00000
 372,21;  476,500;  448,500;    0,000;28,00000
 372,55;  421,000;  451,500;    0,000;-30,50000
 372,89;  434,000;  391,000;    0,000;43,00000
 373,22;  457,000;  382,500;    0,000;74,50000
 373,56;  465,500;  380,000;    0,000;85,50000
 373,90;  452,000;  435,000;    0,000;17,00000
 374,23;  467,000;  445,500;    0,000;21,50000
 374,57;  459,000;  450,000;    0,000; 9,00000
 374,91;  481,500;  402,000;    0,000;79,50000
 375,24;  452,500;  412,500;    0,000;40,00000
 375,58;  465,500;  410,500;    0,000;55,00000
 375,92;  466,000;  385,500;    0,000;80,50000
 376,25;  447,500;  443,000;    0,000; 4,50000
 376,59;  402,500;  402,000;    0,000; 0,50000
 376,92;  467,000;  402,000;    0,000;65,00000
 377,26;  467,500;  430,000;    0,000;37,50000
 377,60;  490,000;  456,500;    0,000;33,50000
 377,93;  453,500;  442,000;    0,000;11,50000
 378,27;  444,000;  411,500;    0,000;32,50000
 378,61;  453,500;  465,500;    0,000;-12,00000
 378,94;  417,500;  432,000;    0,000;-14,50000
 379,28;  439,500;  446,000;    0,000;-6,50000
 379,61;  480,500;  413,000;    0,000;67,50000
 379,95;  482,500;  442,500;    0,000;40,00000
 380,29;  465,500;  378,500;    0,000;87,00000
 380,62;  475,500;  464,000;    0,000;11,50000
 380,96;  423,500;  404,500;    0,000;19,00000
 381,30;  478,000;  424,000;    0,000;54,00000
 381,63;  430,000;  418,000;    0,000;12,00000
 381,97;  514,500;  436,000;    0,000;78,50000
 382,30;  466,500;  451,000;    0,000;15,50000
 382,64;  484,500;  429,000;    0,000;55,50000
 382,98;  434,500;  412,500;    0,000;22,00000
 383,31;  469,500;  419,500;    0,000;50,00000
 383,65;  448,000;  420,500;    0,000;27,50000
 383,99;  408,000;  443,500;    0,000;-35,50000
 384,32;  435,000;  442,500;    0,000;-7,50000
 384,66;  429,000;  439,000;    0,000;-10,00000
 384,99;  455,500;  417,500;    0,000;38,00000
 385,33;  472,500;  396,000;    0,000;76,50000
 385,67;  472,500;  455,500;    0,000;17,00000
 386,00;  450,500;  410,000;    0,000;40,50000
 386,34;  470,000;  396,000;    0,000;74,00000
 386,67;  452,500;  426,500;    0,000;26,00000
 387,01;  448,000;  415,500;    0,000;32,50000
 387,35;  466,000;  418,500;    0,000;47,50000
 387,68;  438,000;  409,500;    0,000;28,50000
 388,02;  501,000;  387,000;    0,000;114,00000
 388,35;  441,000;  406,000;    0,000;35,00000
 388,69;  484,500;  399,500;    0,000;85,00000
 389,03;  478,500;  402,000;    0,000;76,50000
 389,36;  498,000;  433,500;    0,000;64,50000
 389,70;  407,500;  403,000;    0,000; 4,50000
 390,03;  449,500;  409,000;    0,000;40,50000
 390,37;  480,000;  421,500;    0,000;58,50000
 390,71;  494,000;  448,500;    0,000;45,50000
 391,04;  457,500;  389,500;    0,000;68,00000
 391,38;  485,500;  458,000;    0,000;27,50000
 391,71;  448,500;  452,000;    0,000;-3,50000
 392,05;  479,000;  470,500;    0,000; 8,50000
 392,38;  466,500;  367,000;    0,000;99,50000
 392,72;  463,500;  419,500;    0,000;44,00000
 393,06;  404,500;  449,500;    0,000;-45,00000
 393,39;  464,000;  410,500;    0,000;53,50000
 393,73;  466,500;  400,000;    0,000;66,50000
 394,06;  454,000;  418,000;    0,000;36,00000
 394,40;  441,500;  390,500;    0,000;51,00000
 394,73;  462,000;  424,500;    0,000;37,50000
 395,07;  462,500;  443,000;    0,000;19,50000
 395,41;  449,000;  431,500;    0,000;17,50000
 395,74;  449,000;  410,500;    0,000;38,50000
 396,08;  470,500;  440,000;    0,000;30,50000
 396,41;  447,500;  439,000;    0,000; 8,50000
 396,75;  461,000;  465,500;    0,000;-4,50000
 397,09;  408,000;  409,500;    0,000;-1,50000
 397,42;  473,000;  379,000;    0,000;94,00000
 397,76;  476,000;  393,000;    0,000;83,00000
 398,09;  460,500;  412,500;    0,000;48,00000
 398,43;  434,000;  467,500;    0,000;-33,50000
 398,76;  477,500;  424,500;    0,000;53,00000
 399,10;  429,500;  425,500;    0,000; 4,00000
 399,43;  462,500;  432,000;    0,000;30,50000
 399,77;  461,000;  399,000;    0,000;62,00000
 400,11;  477,000;  408,500;    0,000;68,50000
 400,44;  491,500;  433,000;    0,000;58,50000
 400,78;  449,500;  396,500;    0,000;53,00000
 401,11;  435,000;  394,500;    0,000;40,50000
 401,45;  424,500;  370,500;    0,000;54,00000
 401,78;  446,500;  407,000;    0,000;39,50000
 402,12;  443,500;  409,500;    0,000;34,00000
 402,45;  432,500;  393,000;    0,000;39,50000
 402,79;  501,500;  417,000;    0,000;84,50000
 403,13;  423,000;  390,000;    0,000;33,00000
 403,46;  446,000;  429,000;    0,000;17,00000
 403,80;  449,500;  380,500;    0,000;69,00000
 404,13;  434,000;  430,000;    0,000; 4,00000
 404,47;  449,500;  431,500;    0,000;18,00000
 404,80;  482,500;  426,000;    0,000;56,50000
 405,14;  431,000;  377,500;    0,000;53,50000
 405,47;  515,500;  407,000;    0,000;108,50000
 405,81;  463,000;  454,500;    0,000; 8,50000
 406,14;  434,500;  438,500;    0,000;-4,00000
 406,48;  451,000;  387,000;    0,000;64,00000
 406,81;  438,500;  428,500;    0,000;10,00000
 407,15;  482,500;  433,500;    0,000;49,00000
 407,49;  516,500;  419,000;    0,000;97,50000
 407,82;  461,000;  441,000;    0,000;20,00000
 408,16;  466,500;  449,500;    0,000;17,00000
 408,49;  444,000;  424,000;    0,000;20,00000
 408,83;  477,000;  423,500;    0,000;53,50000
 409,16;  446,000;  434,500;    0,000;11,50000
 409,50;  448,500;  460,000;    0,000;-11,50000
 409,83;  459,000;  438,500;    0,000;20,50000
 410,17;  511,000;  394,000;    0,000;117,00000
 410,50;  494,500;  445,500;    0,000;49,00000
 410,84;  440,500;  396,000;    0,000;44,50000
 411,17;  434,000;  437,500;    0,000;-3,50000
 411,51;  483,000;  472,000;    0,000;11,00000
 411,84;  443,500;  426,500;    0,000;17,00000
 412,18;  466,000;  416,500;    0,000;49,50000
 412,51;  465,000;  376,500;    0,000;88,50000
 412,85;  464,000;  396,500;    0,000;67,50000
 413,18;  457,500;  422,500;    0,000;35,00000
 413,52;  415,500;  405,000;    0,000;10,50000
 413,85;  430,500;  368,000;    0,000;62,50000
 414,19;  485,500;  449,000;    0,000;36,50000
 414,53;  463,000;  374,000;    0,000;89,00000
 414,86;  469,500;  456,000;    0,000;13,50000
 415,20;  455,500;  422,500;    0,000;33,00000
 415,53;  475,000;  422,000;    0,000;53,00000
 415,87;  442,500;  439,000;    0,000; 3,50000
 416,20;  472,000;  413,500;    0,000;58,50000
 416,54;  443,500;  424,000;    0,000;19,50000
 416,87;  480,500;  442,000;    0,000;38,50000
 417,21;  450,000;  446,000;    0,000; 4,00000
 417,54;  439,000;  417,500;    0,000;21,50000
 417,88;  438,000;  390,500;    0,000;47,50000
 418,21;  472,500;  381,500;    0,000;91,00000
 418,55;  441,000;  406,500;    0,000;34,50000
 418,88;  483,500;  418,500;    0,000;65,00000
 419,22;  404,000;  433,500;    0,000;-29,50000
 419,55;  472,000;  471,000;    0,000; 1,00000
 419,89;  444,000;  423,500;    0,000;20,50000
 420,22;  467,500;  412,000;    0,000;55,50000
 420,55;  482,500;  426,000;    0,000;56,50000
 420,89;  430,500;  435,500;    0,000;-5,00000
 421,22;  502,500;  428,500;    0,000;74,00000
 421,56;  438,000;  410,500;    0,000;27,50000
 421,89;  453,500;  409,000;    0,000;44,50000
 422,23;  460,000;  420,000;    0,000;40,00000
 422,56;  462,000;  412,500;    0,000;49,50000
 422,90;  496,000;  416,000;    0,000;80,00000
 423,23;  417,000;  413,000;    0,000; 4,00000
 423,57;  443,500;  435,000;    0,000; 8,50000
 423,90;  469,500;  462,000;    0,000; 7,50000
 424,24;  466,000;  471,000;    0,000;-5,00000
 424,57;  426,000;  426,500;    0,000;-0,50000
 424,91;  467,500;  426,500;    0,000;41,00000
 425,24;  456,500;  465,500;    0,000;-9,00000
 425,58;  517,500;  420,500;    0,000;97,00000
 425,91;  468,000;  440,000;    0,000;28,00000
 426,25;  449,500;  418,000;    0,000;31,50000
 426,58;  459,500;  385,000;    0,000;74,50000
 426,92;  475,000;  403,500;    0,000;71,50000
 427,25;  423,500;  407,000;    0,000;16,50000
 427,59;  438,500;  391,500;    0,000;47,00000
 427,92;  485,500;  463,000;    0,000;22,50000
 428,25;  458,500;  417,000;    0,000;41,50000
 428,59;  427,000;  422,500;    0,000; 4,50000
 428,92;  462,500;  422,500;    0,000;40,00000
 429,26;  436,000;  429,500;    0,000; 6,50000
 429,59;  487,500;  396,500;    0,000;91,00000
 429,93;  456,000;  432,000;    0,000;24,00000
 430,26;  437,500;  417,000;    0,000;20,50000
 430,60;  457,000;  399,000;    0,000;58,00000
 430,93;  457,500;  395,500;    0,000;62,00000
 431,27;  457,500;  432,000;    0,000;25,50000
 431,60;  461,000;  432,000;    0,000;29,00000
 431,93;  496,500;  429,500;    0,000;67,00000
 432,27;  430,000;  469,500;    0,000;-39,50000
 432,60;  460,500;  397,500;    0,000;63,00000
 432,94;  478,500;  433,000;    0,000;45,50000
 433,27;  462,500;  433,500;    0,000;29,00000
 433,61;  445,000;  431,500;    0,000;13,50000
 433,94;  488,000;  412,500;    0,000;75,50000
 434,28;  447,000;  430,500;    0,000;16,50000
 434,61;  462,000;  397,000;    0,000;65,00000
 434,94;  455,000;  429,500;    0,000;25,50000
 435,28;  493,500;  344,500;    0,000;149,00000
 435,61;  476,000;  386,000;    0,000;90,00000
 435,95;  467,500;  408,000;    0,000;59,50000
 436,28;  478,000;  425,500;    0,000;52,50000
 436,62;  457,500;  405,500;    0,000;52,00000
 436,95;  440,500;  446,000;    0,000;-5,50000
 437,28;  490,500;  374,500;    0,000;116,00000
 437,62;  468,500;  406,500;    0,000;62,00000
 437,95;  495,500;  437,500;    0,000;58,00000
 438,29;  481,500;  431,500;    0,000;50,00000
 438,62;  467,000;  405,000;    0,000;62,00000
 438,96;  458,000;  481,000;    0,000;-23,00000
 439,29;  452,000;  438,000;    0,000;14,00000
 439,62;  429,500;  427,500;    0,000; 2,00000
 439,96;  465,500;  372,500;    0,000;93,00000
 440,29;  489,000;  425,500;    0,000;63,50000
 440,63;  440,500;  444,000;    0,000;-3,50000
 440,96;  461,500;  451,000;    0,000;10,50000
 441,30;  436,500;  460,500;    0,000;-24,00000
 441,63;  489,500;  461,000;    0,000;28,50000
 441,96;  473,000;  430,500;    0,000;42,50000
 442,30;  465,000;  391,000;    0,000;74,00000
 442,63;  496,500;  457,000;    0,000;39,50000
 442,97;  422,000;  441,000;    0,000;-19,00000
 443,30;  450,500;  376,500;    0,000;74,00000
 443,63;  488,500;  425,000;    0,000;63,50000
 443,97;  508,500;  438,500;    0,000;70,00000
 444,30;  419,000;  448,000;    0,000;-29,00000
 444,64;  547,500;  473,000;    0,000;74,50000
 444,97;  488,000;  418,000;    0,000;70,00000
 445,31;  414,000;  429,500;    0,000;-15,50000
 445,64;  468,000;  361,000;    0,000;107,00000
 445,97;  530,500;  439,500;    0,000;91,00000
 446,31;  468,500;  449,500;    0,000;19,00000
 446,64;  516,500;  419,500;    0,000;97,00000
 446,98;  537,500;  448,500;    0,000;89,00000
 447,31;  532,500;  412,500;    0,000;120,00000
 447,64;  585,000;  477,500;    0,000;107,50000
 447,98;  590,000;  431,500;    0,000;158,50000
 448,31;  682,000;  360,500;    0,000;321,50000
 448,64;  670,500;  427,000;    0,000;243,50000
 448,98;  743,000;  403,000;    0,000;340,00000
 449,31;  870,500;  418,500;    0,000;452,00000
 449,65; 1519,500;  457,500;    0,000;1062,00000
 449,98; 4149,000;  456,000;    0,000;3693,00000
 450,31;16723,000;  464,500;    0,000;16258,50000
 450,65;36787,500;  393,500;    0,000;36394,00000
 450,98;42695,000;  436,000;    0,000;42259,00000
 451,32;27499,500;  430,500;    0,000;27069,00000
 451,65; 8961,500;  407,500;    0,000;8554,00000
 451,98; 2641,000;  446,000;    0,000;2195,00000
 452,32; 1297,500;  441,500;    0,000;856,00000
 452,65;  935,000;  424,500;    0,000;510,50000
 452,98;  798,500;  400,000;    0,000;398,50000
 453,32;  699,500;  400,500;    0,000;299,00000
 453,65;  677,500;  417,000;    0,000;260,50000
 453,99;  671,500;  402,500;    0,000;269,00000
 454,32;  593,000;  460,000;    0,000;133,00000
 454,65;  597,000;  382,000;    0,000;215,00000
 454,99;  555,500;  437,000;    0,000;118,50000
 455,32;  594,500;  435,000;    0,000;159,50000
 455,65;  532,500;  434,000;    0,000;98,50000
 455,99;  555,500;  402,500;    0,000;153,00000
 456,32;  513,000;  464,500;    0,000;48,50000
 456,66;  500,500;  420,000;    0,000;80,50000
 456,99;  512,000;  432,500;    0,000;79,50000
 457,32;  488,000;  413,000;    0,000;75,00000
 457,66;  520,500;  406,000;    0,000;114,50000
 457,99;  485,000;  374,000;    0,000;111,00000
 458,32;  446,000;  418,000;    0,000;28,00000
 458,66;  469,500;  433,000;    0,000;36,50000
 458,99;  472,000;  375,000;    0,000;97,00000
 459,32;  496,000;  452,000;    0,000;44,00000
 459,66;  484,000;  429,000;    0,000;55,00000
 459,99;  451,500;  448,000;    0,000; 3,50000
 460,32;  473,500;  506,000;    0,000;-32,50000
 460,66;  515,000;  407,000;    0,000;108,00000
 460,99;  485,500;  434,500;    0,000;51,00000
 461,33;  464,000;  418,500;    0,000;45,50000
 461,66;  504,500;  417,500;    0,000;87,00000
 461,99;  457,500;  453,000;    0,000; 4,50000
 462,33;  495,000;  478,500;    0,000;16,50000
 462,66;  431,500;  451,000;    0,000;-19,50000
 462,99;  440,500;  452,000;    0,000;-11,50000
 463,33;  428,000;  414,500;    0,000;13,50000
 463,66;  458,500;  397,500;    0,000;61,00000
 463,99;  497,000;  394,000;    0,000;103,00000
 464,33;  432,500;  404,000;    0,000;28,50000
 464,66;  527,000;  414,500;    0,000;112,50000
 464,99;  491,000;  432,000;    0,000;59,00000
 465,33;  463,000;  372,500;    0,000;90,50000
 465,66;  492,000;  421,000;    0,000;71,00000
 465,99;  461,000;  399,000;    0,000;62,00000
 466,33;  463,000;  399,000;    0,000;64,00000
 466,66;  426,000;  394,000;    0,000;32,00000
 466,99;  449,500;  420,000;    0,000;29,50000
 467,33;  481,500;  403,000;    0,000;78,50000
 467,66;  434,500;  408,000;    0,000;26,50000
 467,99;  447,000;  416,000;    0,000;31,00000
 468,33;  469,000;  455,500;    0,000;13,50000
 468,66;  486,500;  408,500;    0,000;78,00000
 468,99;  432,500;  442,500;    0,000;-10,00000
 469,33;  470,000;  413,500;    0,000;56,50000
 469,66;  459,000;  435,000;    0,000;24,00000
 469,99;  487,000;  439,500;    0,000;47,50000
 470,32;  515,000;  411,000;    0,000;104,00000
 470,66;  445,000;  373,000;    0,000;72,00000
 470,99;  480,000;  425,500;    0,000;54,50000
 471,32;  470,500;  426,000;    0,000;44,50000
 471,66;  424,500;  444,500;    0,000;-20,00000
 471,99;  428,500;  454,000;    0,000;-25,50000
 472,32;  472,000;  400,000;    0,000;72,00000
 472,66;  467,500;  402,500;    0,000;65,00000
 472,99;  437,000;  414,500;    0,000;22,50000
 473,32;  478,000;  399,000;    0,000;79,00000
 473,66;  430,000;  388,500;    0,000;41,50000
 473,99;  476,000;  399,000;    0,000;77,00000
 474,32;  436,500;  435,000;    0,000; 1,50000
 474,65;  453,500;  390,000;    0,000;63,50000
 474,99;  388,500;  384,000;    0,000; 4,50000
 475,32;  485,500;  412,000;    0,000;73,50000
 475,65;  431,500;  434,500;    0,000;-3,00000
 475,99;  444,000;  437,500;    0,000; 6,50000
 476,32;  448,500;  434,500;    0,000;14,00000
 476,65;  471,000;  459,000;    0,000;12,00000
 476,99;  439,500;  442,500;    0,000;-3,00000
 477,32;  463,500;  422,000;    0,000;41,50000
 477,65;  423,000;  449,500;    0,000;-26,50000
 477,98;  476,000;  420,000;    0,000;56,00000
 478,32;  485,000;  389,000;    0,000;96,00000
 478,65;  461,500;  445,000;    0,000;16,50000
 478,98;  424,500;  444,500;    0,000;-20,00000
 479,32;  441,500;  436,500;    0,000; 5,00000
 479,65;  430,500;  442,000;    0,000;-11,50000
 479,98;  445,000;  461,000;    0,000;-16,00000
 480,31;  461,500;  447,500;    0,000;14,00000
 480,65;  490,000;  403,000;    0,000;87,00000
 480,98;  482,500;  467,000;    0,000;15,50000
 481,31;  477,000;  445,500;    0,000;31,50000
 481,65;  461,500;  448,000;    0,000;13,50000
 481,98;  458,500;  401,500;    0,000;57,00000
 482,31;  425,500;  489,000;    0,000;-63,50000
 482,64;  416,000;  433,000;    0,000;-17,00000
 482,98;  482,000;  431,500;    0,000;50,50000
 483,31;  460,500;  455,500;    0,000; 5,00000
 483,64;  486,000;  445,500;    0,000;40,50000
 483,97;  477,500;  444,500;    0,000;33,00000
 484,31;  463,500;  405,000;    0,000;58,50000
 484,64;  454,000;  413,500;    0,000;40,50000
 484,97;  494,000;  397,500;    0,000;96,50000
 485,30;  484,500;  418,500;    0,000;66,00000
 485,64;  429,500;  425,000;    0,000; 4,50000
 485,97;  456,500;  430,500;    0,000;26,00000
 486,30;  461,500;  402,500;    0,000;59,00000
 486,64;  451,500;  414,500;    0,000;37,00000
 486,97;  465,000;  411,000;    0,000;54,00000
 487,30;  457,500;  426,500;    0,000;31,00000
 487,63;  485,000;  416,000;    0,000;69,00000
 487,97;  477,500;  443,000;    0,000;34,50000
 488,30;  457,500;  440,000;    0,000;17,50000
 488,63;  519,500;  407,000;    0,000;112,50000
 488,96;  454,500;  445,000;    0,000; 9,50000
 489,30;  463,000;  423,500;    0,000;39,50000
 489,63;  441,500;  438,500;    0,000; 3,00000
 489,96;  448,500;  425,000;    0,000;23,50000
 490,29;  450,500;  437,000;    0,000;13,50000
 490,63;  492,000;  408,500;    0,000;83,50000
 490,96;  496,000;  423,500;    0,000;72,50000
 491,29;  477,500;  409,000;    0,000;68,50000
 491,62;  497,000;  442,500;    0,000;54,50000
 491,95;  460,000;  464,000;    0,000;-4,00000
 492,29;  426,500;  461,000;    0,000;-34,50000
 492,62;  432,000;  455,500;    0,000;-23,50000
 492,95;  468,500;  414,500;    0,000;54,00000
 493,28;  441,500;  406,000;    0,000;35,50000
 493,62;  448,000;  436,000;    0,000;12,00000
 493,95;  518,000;  425,500;    0,000;92,50000
 494,28;  415,500;  412,500;    0,000; 3,00000
 494,61;  453,000;  413,000;    0,000;40,00000
 494,95;  451,500;  453,500;    0,000;-2,00000
 495,28;  460,500;  374,000;    0,000;86,50000
 495,61;  466,000;  412,500;    0,000;53,50000
 495,94;  459,500;  413,000;    0,000;46,50000
 496,27;  426,000;  420,000;    0,000; 6,00000
 496,61;  485,500;  447,500;    0,000;38,00000
 496,94;  439,000;  424,500;    0,000;14,50000
 497,27;  426,000;  398,000;    0,000;28,00000
 497,60;  428,500;  427,500;    0,000; 1,00000
 497,94;  422,500;  398,000;    0,000;24,50000
 498,27;  440,500;  484,500;    0,000;-44,00000
 498,60;  449,000;  430,000;    0,000;19,00000
 498,93;  471,000;  438,000;    0,000;33,00000
 499,26;  416,000;  447,500;    0,000;-31,50000
 499,60;  406,000;  422,000;    0,000;-16,00000
 499,93;  453,000;  427,000;    0,000;26,00000
 500,26;  442,500;  402,500;    0,000;40,00000
 500,59;  481,000;  437,000;    0,000;44,00000
 500,92;  526,000;  413,500;    0,000;112,50000
 501,26;  442,500;  472,000;    0,000;-29,50000
 501,59;  439,000;  391,500;    0,000;47,50000
 501,92;  465,000;  467,000;    0,000;-2,00000
 502,25;  469,500;  485,000;    0,000;-15,50000
 502,58;  490,000;  417,500;    0,000;72,50000
 502,92;  433,000;  426,500;    0,000; 6,50000
 503,25;  457,000;  436,500;    0,000;20,50000
 503,58;  477,500;  418,000;    0,000;59,50000
 503,91;  491,500;  395,000;    0,000;96,50000
 504,24;  435,500;  397,500;    0,000;38,00000
 504,58;  482,000;  448,000;    0,000;34,00000
 504,91;  506,000;  405,000;    0,000;101,00000
 505,24;  418,500;  412,500;    0,000; 6,00000
 505,57;  438,500;  414,500;    0,000;24,00000
 505,90;  473,500;  440,500;    0,000;33,00000
 506,24;  442,500;  432,000;    0,000;10,50000
 506,57;  444,500;  399,000;    0,000;45,50000
 506,90;  481,000;  420,000;    0,000;61,00000
 507,23;  478,000;  403,000;    0,000;75,00000
 507,56;  442,500;  414,000;    0,000;28,50000
 507,90;  455,000;  429,000;    0,000;26,00000
 508,23;  517,000;  402,500;    0,000;114,50000
 508,56;  418,000;  461,500;    0,000;-43,50000
 508,89;  434,000;  457,500;    0,000;-23,50000
 509,22;  455,000;  455,500;    0,000;-0,50000
 509,55;  513,000;  429,000;    0,000;84,00000
 509,89;  481,000;  462,000;    0,000;19,00000
 510,22;  430,000;  412,500;    0,000;17,50000
 510,55;  443,500;  462,500;    0,000;-19,00000
 510,88;  458,500;  456,500;    0,000; 2,00000
 511,21;  457,500;  407,500;    0,000;50,00000
 511,54;  447,500;  452,000;    0,000;-4,50000
 511,88;  476,500;  424,000;    0,000;52,50000
 512,21;  460,500;  428,000;    0,000;32,50000
 512,54;  414,000;  433,000;    0,000;-19,00000
 512,87;  469,500;  458,500;    0,000;11,00000
 513,20;  446,500;  404,500;    0,000;42,00000
 513,53;  440,000;  378,500;    0,000;61,50000
 513,87;  446,000;  415,500;    0,000;30,50000
 514,20;  459,500;  431,500;    0,000;28,00000
 514,53;  444,500;  407,000;    0,000;37,50000
 514,86;  395,000;  421,000;    0,000;-26,00000
 515,19;  444,000;  397,000;    0,000;47,00000
 515,52;  457,000;  443,500;    0,000;13,50000
 515,85;  486,500;  440,500;    0,000;46,00000
 516,19;  479,000;  429,500;    0,000;49,50000
 516,52;  440,000;  408,000;    0,000;32,00000
 516,85;  493,000;  400,500;    0,000;92,50000
 517,18;  417,000;  395,500;    0,000;21,50000
 517,51;  429,000;  407,000;    0,000;22,00000
 517,84;  428,500;  447,500;    0,000;-19,00000
 518,17;  459,500;  402,500;    0,000;57,00000
 518,51;  438,500;  438,000;    0,000; 0,50000
 518,84;  466,000;  419,500;    0,000;46,50000
 519,17;  456,000;  373,500;    0,000;82,50000
 519,50;  433,000;  444,500;    0,000;-11,50000
 519,83;  478,500;  483,000;    0,000;-4,50000
 520,16;  465,000;  445,500;    0,000;19,50000
 520,49;  463,000;  413,500;    0,000;49,50000
 520,83;  468,000;  423,500;    0,000;44,50000
 521,16;  465,500;  439,000;    0,000;26,50000
 521,49;  475,000;  399,000;    0,000;76,00000
 521,82;  494,500;  435,500;    0,000;59,00000
 522,15;  485,000;  427,500;    0,000;57,50000
 522,48;  449,500;  418,500;    0,000;31,00000
 522,81;  442,500;  456,500;    0,000;-14,00000
 523,14;  420,500;  398,500;    0,000;22,00000
 523,48;  445,000;  406,500;    0,000;38,50000
 523,81;  451,000;  460,500;    0,000;-9,50000
 524,14;  443,500;  441,000;    0,000; 2,50000
 524,47;  476,000;  389,000;    0,000;87,00000
 524,80;  437,000;  449,000;    0,000;-12,00000
 525,13;  433,500;  389,000;    0,000;44,50000
 525,46;  461,500;  403,000;    0,000;58,50000
 525,79;  444,500;  415,000;    0,000;29,50000
 526,13;  448,500;  403,000;    0,000;45,50000
 526,46;  453,500;  426,000;    0,000;27,50000
 526,79;  413,500;  423,500;    0,000;-10,00000
 527,12;  444,500;  415,500;    0,000;29,00000
 527,45;  475,000;  376,000;    0,000;99,00000
 527,78;  464,000;  413,000;    0,000;51,00000
 528,11;  445,500;  435,500;    0,000;10,00000
 528,44;  436,500;  426,500;    0,000;10,00000
 528,77;  522,000;  424,500;    0,000;97,50000
 529,10;  493,500;  440,000;    0,000;53,50000
 529,44;  499,500;  450,500;    0,000;49,00000
 529,77;  444,500;  457,500;    0,000;-13,00000
 530,10;  491,000;  430,000;    0,000;61,00000
 530,43;  460,500;  410,000;    0,000;50,50000
 530,76;  446,500;  438,000;    0,000; 8,50000
 531,09;  401,500;  449,000;    0,000;-47,50000
 531,42;  456,000;  424,500;    0,000;31,50000
 531,75;  423,000;  408,500;    0,000;14,50000
 532,08;  468,000;  468,500;    0,000;-0,50000
 532,41;  449,000;  414,000;    0,000;35,00000
 532,75;  478,500;  392,000;    0,000;86,50000
 533,08;  449,500;  420,000;    0,000;29,50000
 533,41;  431,000;  420,000;    0,000;11,00000
 533,74;  487,000;  377,000;    0,000;110,00000
 534,07;  448,000;  437,500;    0,000;10,50000
 534,40;  449,000;  381,500;    0,000;67,50000
 534,73;  400,500;  420,000;    0,000;-19,50000
 535,06;  418,500;  436,500;    0,000;-18,00000
 535,39;  460,000;  421,000;    0,000;39,00000
 535,72;  435,500;  422,500;    0,000;13,00000
 536,05;  444,000;  413,500;    0,000;30,50000
 536,38;  445,000;  415,500;    0,000;29,50000
 536,71;  432,000;  416,000;    0,000;16,00000
 537,05;  437,500;  404,000;    0,000;33,50000
 537,38;  423,500;  414,000;    0,000; 9,50000
 537,71;  448,000;  447,500;    0,000; 0,50000
 538,04;  468,000;  409,500;    0,000;58,50000
 538,37;  495,500;  423,000;    0,000;72,50000
 538,70;  453,500;  419,500;    0,000;34,00000
 539,03;  472,500;  416,500;    0,000;56,00000
 539,36;  461,500;  452,500;    0,000; 9,00000
 539,69;  503,000;  439,500;    0,000;63,50000
 540,02;  466,500;  451,500;    0,000;15,00000
 540,35;  435,500;  414,500;    0,000;21,00000
 540,68;  424,000;  436,000;    0,000;-12,00000
 541,01;  450,500;  387,000;    0,000;63,50000
 541,34;  494,500;  433,500;    0,000;61,00000
 541,67;  416,000;  472,500;    0,000;-56,50000
 542,00;  452,500;  429,000;    0,000;23,50000
 542,34;  459,500;  440,000;    0,000;19,50000
 542,67;  475,000;  445,500;    0,000;29,50000
 543,00;  497,000;  433,500;    0,000;63,50000
 543,33;  466,500;  436,000;    0,000;30,50000
 543,66;  455,000;  375,500;    0,000;79,50000
 543,99;  454,500;  444,500;    0,000;10,00000
 544,32;  465,500;  424,500;    0,000;41,00000
 544,65;  431,500;  416,500;    0,000;15,00000
 544,98;  456,000;  417,500;    0,000;38,50000
 545,31;  463,500;  404,500;    0,000;59,00000
 545,64;  476,000;  389,000;    0,000;87,00000
 545,97;  458,500;  388,000;    0,000;70,50000
 546,30;  476,500;  424,000;    0,000;52,50000
 546,63;  483,000;  429,500;    0,000;53,50000
 546,96;  448,500;  420,000;    0,000;28,50000
 547,29;  405,000;  422,000;    0,000;-17,00000
 547,62;  448,000;  411,000;    0,000;37,00000
 547,95;  445,000;  387,500;    0,000;57,50000
 548,28;  440,000;  424,500;    0,000;15,50000
 548,61;  504,000;  408,000;    0,000;96,00000
 548,94;  498,000;  432,500;    0,000;65,50000
 549,27;  436,000;  440,000;    0,000;-4,00000
 549,60;  489,000;  390,500;    0,000;98,50000
 549,93;  387,000;  413,000;    0,000;-26,00000
 550,26;  463,500;  406,500;    0,000;57,00000
 550,59;  440,000;  438,000;    0,000; 2,00000
 550,92;  488,000;  458,000;    0,000;30,00000
 551,25;  517,500;  376,000;    0,000;141,50000
 551,58;  463,000;  459,500;    0,000; 3,50000
 551,91;  470,500;  411,000;    0,000;59,50000
 552,24;  476,500;  432,000;    0,000;44,50000
 552,57;  412,000;  419,000;    0,000;-7,00000
 552,91;  471,500;  454,500;    0,000;17,00000
 553,24;  454,500;  449,500;    0,000; 5,00000
 553,57;  431,000;  449,500;    0,000;-18,50000
 553,90;  429,000;  429,500;    0,000;-0,50000
 554,23;  483,000;  446,000;    0,000;37,00000
 554,56;  480,500;  464,000;    0,000;16,50000
 554,89;  471,000;  397,500;    0,000;73,50000
 555,22;  446,500;  399,500;    0,000;47,00000
 555,55;  475,000;  405,500;    0,000;69,50000
 555,88;  468,000;  429,000;    0,000;39,00000
 556,21;  463,000;  419,000;    0,000;44,00000
 556,54;  462,000;  396,500;    0,000;65,50000
 556,87;  449,000;  399,500;    0,000;49,50000
 557,20;  459,000;  435,500;    0,000;23,50000
 557,53;  435,500;  456,500;    0,000;-21,00000
 557,86;  467,000;  402,500;    0,000;64,50000
 558,19;  483,000;  437,000;    0,000;46,00000
 558,52;  458,000;  455,500;    0,000; 2,50000
 558,84;  415,000;  441,500;    0,000;-26,50000
 559,17;  476,500;  425,000;    0,000;51,50000
 559,50;  447,000;  406,000;    0,000;41,00000
 559,83;  429,000;  419,500;    0,000; 9,50000
 560,16;  463,000;  387,500;    0,000;75,50000
 560,49;  479,000;  392,500;    0,000;86,50000
 560,82;  477,000;  367,500;    0,000;109,50000
 561,15;  459,500;  391,000;    0,000;68,50000
 561,48;  414,500;  423,500;    0,000;-9,00000
 561,81;  425,500;  437,500;    0,000;-12,00000
 562,14;  470,000;  428,000;    0,000;42,00000
 562,47;  424,500;  435,500;    0,000;-11,00000
 562,80;  464,500;  445,500;    0,000;19,00000
 563,13;  429,000;  454,500;    0,000;-25,50000
 563,46;  468,500;  442,500;    0,000;26,00000
 563,79;  465,000;  362,000;    0,000;103,00000
 564,12;  439,000;  396,500;    0,000;42,50000
 564,45;  482,000;  386,500;    0,000;95,50000
 564,78;  473,500;  415,000;    0,000;58,50000
 565,11;  452,000;  400,000;    0,000;52,00000
 565,44;  406,000;  434,500;    0,000;-28,50000
 565,77;  443,500;  404,000;    0,000;39,50000
 566,10;  456,000;  422,000;    0,000;34,00000
 566,43;  422,500;  462,000;    0,000;-39,50000
 566,76;  411,000;  427,500;    0,000;-16,50000
 567,09;  400,000;  447,000;    0,000;-47,00000
 567,42;  489,500;  430,500;    0,000;59,00000
 567,75;  496,000;  424,500;    0,000;71,50000
 568,08;  456,000;  421,000;    0,000;35,00000
 568,41;  462,500;  416,500;    0,000;46,00000
 568,74;  426,500;  452,000;    0,000;-25,50000
 569,07;  440,500;  399,000;    0,000;41,50000
 569,39;  491,500;  429,000;    0,000;62,50000
 569,72;  424,000;  398,000;    0,000;26,00000
 570,05;  452,000;  443,000;    0,000; 9,00000
 570,38;  427,000;  448,500;    0,000;-21,50000
 570,71;  492,000;  391,000;    0,000;101,00000
 571,04;  484,500;  446,500;    0,000;38,00000
 571,37;  424,000;  445,000;    0,000;-21,00000
 571,70;  458,500;  450,000;    0,000; 8,50000
 572,03;  427,500;  405,000;    0,000;22,50000
 572,36;  451,000;  419,500;    0,000;31,50000
 572,69;  448,000;  464,000;    0,000;-16,00000
 573,02;  478,000;  433,000;    0,000;45,00000
 573,35;  410,000;  424,000;    0,000;-14,00000
 573,68;  462,500;  448,500;    0,000;14,00000
 574,01;  454,500;  418,500;    0,000;36,00000
 574,34;  436,000;  433,000;    0,000; 3,00000
 574,66;  446,000;  412,500;    0,000;33,50000
 574,99;  471,000;  467,000;    0,000; 4,00000
 575,32;  440,000;  382,000;    0,000;58,00000
 575,65;  432,000;  446,000;    0,000;-14,00000
 575,98;  453,500;  393,500;    0,000;60,00000
 576,31;  420,500;  382,000;    0,000;38,50000
 576,64;  437,000;  437,500;    0,000;-0,50000
 576,97;  472,500;  496,000;    0,000;-23,50000
 577,30;  473,500;  430,000;    0,000;43,50000
 577,63;  450,500;  471,500;    0,000;-21,00000
 577,96;  480,000;  427,000;    0,000;53,00000
 578,29;  457,500;  408,500;    0,000;49,00000
 578,61;  399,000;  478,500;    0,000;-79,50000
 578,94;  442,500;  433,000;    0,000; 9,50000
 579,27;  414,000;  379,500;    0,000;34,50000
 579,60;  391,000;  435,500;    0,000;-44,50000
 579,93;  474,500;  378,000;    0,000;96,50000
 580,26;  405,500;  424,000;    0,000;-18,50000
 580,59;  463,000;  453,500;    0,000; 9,50000
 580,92;  436,500;  456,500;    0,000;-20,00000
 581,25;  488,500;  429,500;    0,000;59,00000
 581,58;  492,000;  443,000;    0,000;49,00000
 581,91;  481,500;  407,000;    0,000;74,50000
 582,23;  494,500;  425,500;    0,000;69,00000
 582,56;  458,000;  407,000;    0,000;51,00000
 582,89;  468,000;  416,500;    0,000;51,50000
 583,22;  479,500;  406,500;    0,000;73,00000
 583,55;  457,500;  432,000;    0,000;25,50000
 583,88;  481,000;  391,500;    0,000;89,50000
 584,21;  456,000;  420,500;    0,000;35,50000
 584,54;  444,000;  422,000;    0,000;22,00000
 584,87;  457,500;  412,000;    0,000;45,50000
 585,19;  442,500;  461,000;    0,000;-18,50000
 585,52;  472,000;  396,500;    0,000;75,50000
 585,85;  445,500;  444,000;    0,000; 1,50000
 586,18;  438,500;  434,000;    0,000; 4,50000
 586,51;  476,500;  396,000;    0,000;80,50000
 586,84;  454,000;  417,000;    0,000;37,00000
 587,17;  436,000;  435,000;    0,000; 1,00000
 587,50;  456,500;  435,500;    0,000;21,00000
 587,83;  436,000;  431,000;    0,000; 5,00000
 588,15;  484,000;  476,500;    0,000; 7,50000
 588,48;  476,000;  441,500;    0,000;34,50000
 588,81;  469,000;  412,500;    0,000;56,50000
 589,14;  434,000;  444,500;    0,000;-10,50000
 589,47;  465,000;  428,000;    0,000;37,00000
 589,80;  468,000;  402,000;    0,000;66,00000
 590,13;  467,500;  460,500;    0,000; 7,00000
 590,45;  481,000;  405,000;    0,000;76,00000
 590,78;  505,500;  407,000;    0,000;98,50000
 591,11;  453,000;  413,000;    0,000;40,00000
 591,44;  434,500;  415,000;    0,000;19,50000
 591,77;  452,500;  428,000;    0,000;24,50000
 592,10;  445,500;  421,500;    0,000;24,00000
 592,43;  445,500;  404,500;    0,000;41,00000
 592,75;  444,000;  436,500;    0,000; 7,50000
 593,08;  422,000;  398,000;    0,000;24,00000
 593,41;  453,000;  413,000;    0,000;40,00000
 593,74;  434,500;  399,500;    0,000;35,00000
 594,07;  455,500;  433,000;    0,000;22,50000
 594,40;  466,500;  475,000;    0,000;-8,50000
 594,73;  436,000;  420,500;    0,000;15,50000
 595,05;  436,000;  374,000;    0,000;62,00000
 595,38;  504,000;  401,500;    0,000;102,50000
 595,71;  479,500;  425,000;    0,000;54,50000
 596,04;  465,000;  462,500;    0,000; 2,50000
 596,37;  438,000;  417,000;    0,000;21,00000
 596,70;  425,000;  427,500;    0,000;-2,50000
 597,02;  443,000;  404,500;    0,000;38,50000
 597,35;  460,500;  417,000;    0,000;43,50000
 597,68;  482,000;  481,000;    0,000; 1,00000
 598,01;  452,500;  431,000;    0,000;21,50000
 598,34;  445,500;  403,500;    0,000;42,00000
 598,67;  453,500;  402,000;    0,000;51,50000
 599,00;  472,000;  437,000;    0,000;35,00000
 599,32;  447,500;  452,500;    0,000;-5,00000
 599,65;  485,000;  420,500;    0,000;64,50000
 599,98;  477,500;  436,500;    0,000;41,00000
 600,31;  495,500;  424,500;    0,000;71,00000
 600,64;  461,500;  472,500;    0,000;-11,00000
 600,96;  487,500;  424,000;    0,000;63,50000
 601,29;  449,500;  403,000;    0,000;46,50000
 601,62;  458,500;  390,000;    0,000;68,50000
 601,95;  478,500;  380,000;    0,000;98,50000
 602,28;  453,500;  439,000;    0,000;14,50000
 602,61;  422,500;  384,500;    0,000;38,00000
 602,93;  459,500;  426,500;    0,000;33,00000
 603,26;  477,000;  463,500;    0,000;13,50000
 603,59;  478,000;  423,500;    0,000;54,50000
 603,92;  440,500;  441,500;    0,000;-1,00000
 604,25;  418,000;  407,000;    0,000;11,00000
 604,57;  475,500;  462,000;    0,000;13,50000
 604,90;  479,000;  416,500;    0,000;62,50000
 605,23;  419,500;  475,500;    0,000;-56,00000
 605,56;  477,000;  429,500;    0,000;47,50000
 605,89;  474,500;  441,000;    0,000;33,50000
 606,21;  457,500;  434,000;    0,000;23,50000
 606,54;  454,000;  456,000;    0,000;-2,00000
 606,87;  456,500;  437,500;    0,000;19,00000
 607,20;  472,500;  403,500;    0,000;69,00000
 607,53;  485,000;  455,000;    0,000;30,00000
 607,85;  472,500;  424,000;    0,000;48,50000
 608,18;  494,000;  431,500;    0,000;62,50000
 608,51;  483,000;  387,500;    0,000;95,50000
 608,84;  397,000;  403,500;    0,000;-6,50000
 609,17;  474,000;  436,000;    0,000;38,00000
 609,49;  438,000;  406,000;    0,000;32,00000
 609,82;  463,000;  433,500;    0,000;29,50000
 610,15;  406,000;  421,500;    0,000;-15,50000
 610,48;  473,500;  410,500;    0,000;63,00000
 610,81;  475,500;  410,000;    0,000;65,50000
 611,13;  485,000;  423,000;    0,000;62,00000
 611,46;  457,000;  401,500;    0,000;55,50000
 611,79;  442,500;  395,500;    0,000;47,00000
 612,12;  492,500;  444,000;    0,000;48,50000
 612,44;  502,500;  405,500;    0,000;97,00000
 612,77;  468,500;  391,500;    0,000;77,00000
 613,10;  444,500;  438,500;    0,000; 6,00000
 613,43;  463,000;  421,500;    0,000;41,50000
 613,76;  467,000;  436,500;    0,000;30,50000
 614,08;  425,000;  423,500;    0,000; 1,50000
 614,41;  430,000;  405,500;    0,000;24,50000
 614,74;  453,000;  433,000;    0,000;20,00000
 615,07;  461,000;  379,500;    0,000;81,50000
 615,39;  498,500;  383,000;    0,000;115,50000
 615,72;  474,000;  409,500;    0,000;64,50000
 616,05;  447,500;  429,500;    0,000;18,00000
 616,38;  462,000;  443,500;    0,000;18,50000
 616,70;  451,000;  411,500;    0,000;39,50000
 617,03;  474,000;  419,000;    0,000;55,00000
 617,36;  502,000;  445,500;    0,000;56,50000
 617,69;  455,500;  416,500;    0,000;39,00000
 618,02;  435,500;  400,500;    0,000;35,00000
 618,34;  475,000;  398,500;    0,000;76,50000
 618,67;  504,500;  440,000;    0,000;64,50000
 619,00;  450,000;  378,500;    0,000;71,50000
 619,33;  469,500;  411,000;    0,000;58,50000
 619,65;  423,500;  416,000;    0,000; 7,50000
 619,98;  471,000;  444,000;    0,000;27,00000
 620,31;  468,000;  437,500;    0,000;30,50000
 620,64;  430,500;  411,000;    0,000;19,50000
 620,96;  437,500;  414,000;    0,000;23,50000
 621,29;  400,500;  407,000;    0,000;-6,50000
 621,62;  477,000;  437,000;    0,000;40,00000
 621,94;  444,000;  447,500;    0,000;-3,50000
 622,27;  466,000;  433,000;    0,000;33,00000
 622,60;  485,500;  437,500;    0,000;48,00000
 622,93;  447,000;  424,500;    0,000;22,50000
 623,25;  427,500;  416,000;    0,000;11,50000
 623,58;  437,500;  437,500;    0,000; 0,00000
 623,91;  437,000;  445,000;    0,000;-8,00000
 624,24;  430,500;  457,500;    0,000;-27,00000
 624,56;  440,000;  387,000;    0,000;53,00000
 624,89;  459,500;  428,000;    0,000;31,50000
 625,22;  482,500;  438,500;    0,000;44,00000
 625,55;  469,000;  461,000;    0,000; 8,00000
 625,87;  445,000;  395,500;    0,000;49,50000
 626,20;  450,500;  434,000;    0,000;16,50000
 626,53;  419,500;  414,500;    0,000; 5,00000
 626,85;  457,000;  376,000;    0,000;81,00000
 627,18;  489,000;  398,500;    0,000;90,50000
 627,51;  463,500;  457,500;    0,000; 6,00000
 627,84;  472,000;  443,000;    0,000;29,00000
 628,16;  419,500;  378,000;    0,000;41,50000
 628,49;  484,500;  420,500;    0,000;64,00000
 628,82;  419,500;  442,000;    0,000;-22,50000
 629,14;  492,500;  438,500;    0,000;54,00000
 629,47;  450,500;  478,000;    0,000;-27,50000
 629,80;  432,500;  395,500;    0,000;37,00000
 630,13;  483,000;  448,000;    0,000;35,00000
 630,45;  445,500;  451,000;    0,000;-5,50000
 630,78;  452,000;  483,000;    0,000;-31,00000
 631,11;  424,000;  424,500;    0,000;-0,50000
 631,43;  425,000;  423,500;    0,000; 1,50000
 631,76;  434,500;  409,500;    0,000;25,00000
 632,09;  467,500;  399,000;    0,000;68,50000
 632,41;  451,000;  435,000;    0,000;16,00000
 632,74;  439,000;  434,000;    0,000; 5,00000
 633,07;  430,500;  436,500;    0,000;-6,00000
 633,40;  452,000;  464,500;    0,000;-12,50000
 633,72;  467,500;  441,500;    0,000;26,00000
 634,05;  450,000;  452,500;    0,000;-2,50000
 634,38;  451,500;  434,500;    0,000;17,00000
 634,70;  441,000;  419,000;    0,000;22,00000
 635,03;  467,000;  467,000;    0,000; 0,00000
 635,36;  464,500;  435,500;    0,000;29,00000
 635,68;  464,000;  446,000;    0,000;18,00000
 636,01;  464,500;  429,000;    0,000;35,50000
 636,34;  485,000;  413,500;    0,000;71,50000
 636,66;  476,000;  441,500;    0,000;34,50000
 636,99;  482,000;  407,500;    0,000;74,50000
 637,32;  441,500;  475,500;    0,000;-34,00000
 637,64;  482,000;  425,000;    0,000;57,00000
 637,97;  474,500;  407,500;    0,000;67,00000
 638,30;  489,000;  393,500;    0,000;95,50000
 638,62;  444,500;  403,500;    0,000;41,00000
 638,95;  448,500;  417,500;    0,000;31,00000
 639,28;  435,500;  417,500;    0,000;18,00000
 639,60;  484,000;  382,500;    0,000;101,50000
 639,93;  417,500;  426,500;    0,000;-9,00000
 640,26;  464,000;  391,500;    0,000;72,50000
 640,58;  485,000;  449,500;    0,000;35,50000
 640,91;  462,500;  474,500;    0,000;-12,00000
 641,24;  448,500;  406,000;    0,000;42,50000
 641,56;  449,500;  373,000;    0,000;76,50000
 641,89;  469,500;  416,500;    0,000;53,00000
 642,22;  463,000;  433,500;    0,000;29,50000
 642,54;  480,000;  400,000;    0,000;80,00000
 642,87;  457,000;  391,000;    0,000;66,00000
 643,20;  478,500;  432,000;    0,000;46,50000
 643,52;  471,500;  427,000;    0,000;44,50000
 643,85;  474,000;  396,500;    0,000;77,50000
 644,18;  413,500;  381,500;    0,000;32,00000
 644,50;  444,500;  464,000;    0,000;-19,50000
 644,83;  466,000;  444,500;    0,000;21,50000
 645,16;  487,500;  431,000;    0,000;56,50000
 645,48;  444,500;  393,000;    0,000;51,50000
 645,81;  433,500;  430,500;    0,000; 3,00000
 646,13;  467,000;  375,000;    0,000;92,00000
 646,46;  454,500;  449,000;    0,000; 5,50000
 646,79;  437,500;  366,000;    0,000;71,50000
 647,11;  427,000;  411,000;    0,000;16,00000
 647,44;  456,500;  423,000;    0,000;33,50000
 647,77;  457,000;  445,000;    0,000;12,00000
 648,09;  467,000;  404,000;    0,000;63,00000
 648,42;  491,500;  485,500;    0,000; 6,00000
 648,75;  423,500;  433,500;    0,000;-10,00000
 649,07;  456,000;  431,000;    0,000;25,00000
 649,40;  438,500;  421,500;    0,000;17,00000
 649,72;  414,500;  441,000;    0,000;-26,50000
 650,05;  508,500;  454,500;    0,000;54,00000
 650,38;  464,500;  430,500;    0,000;34,00000
 650,70;  472,500;  459,000;    0,000;13,50000
 651,03;  453,000;  438,500;    0,000;14,50000
 651,36;  453,000;  428,500;    0,000;24,50000
 651,68;  455,000;  403,000;    0,000;52,00000
 652,01;  474,000;  419,000;    0,000;55,00000
 652,33;  468,000;  449,500;    0,000;18,50000
 652,66;  432,000;  423,000;    0,000; 9,00000
 652,99;  440,500;  413,000;    0,000;27,50000
 653,31;  445,500;  412,000;    0,000;33,50000
 653,64;  435,000;  490,000;    0,000;-55,00000
 653,96;  436,000;  435,500;    0,000; 0,50000
 654,29;  420,000;  450,000;    0,000;-30,00000
 654,62;  439,000;  498,000;    0,000;-59,00000
 654,94;  492,500;  457,000;    0,000;35,50000
 655,27;  432,000;  411,000;    0,000;21,00000
 655,59;  486,000;  413,500;    0,000;72,50000
 655,92;  420,500;  390,500;    0,000;30,00000
 656,25;  499,000;  411,000;    0,000;88,00000
 656,57;  465,000;  426,000;    0,000;39,00000
 656,90;  487,000;  388,500;    0,000;98,50000
 657,22;  457,500;  372,500;    0,000;85,00000
 657,55;  468,000;  426,000;    0,000;42,00000
 657,88;  433,000;  410,000;    0,000;23,00000
 658,20;  426,500;  409,000;    0,000;17,50000
 658,53;  449,500;  410,000;    0,000;39,50000
 658,85;  455,500;  418,000;    0,000;37,50000
 659,18;  423,000;  420,500;    0,000; 2,50000
 659,51;  437,000;  449,000;    0,000;-12,00000
 659,83;  439,000;  440,000;    0,000;-1,00000
 660,16;  484,500;  404,000;    0,000;80,50000
 660,48;  445,500;  441,500;    0,000; 4,00000
 660,81;  467,000;  413,000;    0,000;54,00000
 661,14;  478,500;  427,500;    0,000;51,00000
 661,46;  480,500;  460,000;    0,000;20,50000
 661,79;  420,000;  446,000;    0,000;-26,00000
 662,11;  480,500;  423,500;    0,000;57,00000
 662,44;  474,000;  407,000;    0,000;67,00000
 662,76;  451,000;  411,500;    0,000;39,50000
 663,09;  415,000;  452,500;    0,000;-37,50000
 663,42;  443,000;  406,000;    0,000;37,00000
 663,74;  447,000;  413,500;    0,000;33,50000
 664,07;  449,500;  434,000;    0,000;15,50000
 664,39;  483,500;  408,500;    0,000;75,00000
 664,72;  435,000;  376,000;    0,000;59,00000
 665,04;  442,000;  422,500;    0,000;19,50000
 665,37;  443,000;  488,500;    0,000;-45,50000
 665,69;  433,500;  442,000;    0,000;-8,50000
 666,02;  473,500;  426,000;    0,000;47,50000
 666,35;  464,500;  440,500;    0,000;24,00000
 666,67;  450,500;  469,000;    0,000;-18,50000
 667,00;  456,500;  416,000;    0,000;40,50000
 667,32;  470,500;  362,500;    0,000;108,00000
 667,65;  486,500;  418,500;    0,000;68,00000
 667,97;  456,000;  387,000;    0,000;69,00000
 668,30;  458,000;  469,500;    0,000;-11,50000
 668,62;  468,000;  424,500;    0,000;43,50000
 668,95;  475,000;  447,000;    0,000;28,00000
 669,28;  421,000;  438,000;    0,000;-17,00000
 669,60;  443,500;  425,000;    0,000;18,50000
 669,93;  481,000;  415,500;    0,000;65,50000
 670,25;  480,500;  426,000;    0,000;54,50000
 670,58;  453,000;  427,000;    0,000;26,00000
 670,90;  482,000;  494,000;    0,000;-12,00000
 671,23;  479,500;  402,500;    0,000;77,00000
 671,55;  413,500;  477,500;    0,000;-64,00000
 671,88;  444,000;  396,500;    0,000;47,50000
 672,20;  474,500;  428,500;    0,000;46,00000
 672,53;  424,500;  426,000;    0,000;-1,50000
 672,85;  416,500;  442,000;    0,000;-25,50000
 673,18;  434,500;  465,500;    0,000;-31,00000
 673,50;  465,500;  417,000;    0,000;48,50000
 673,83;  477,000;  377,000;    0,000;100,00000
 674,16;  482,000;  368,000;    0,000;114,00000
 674,48;  446,000;  457,000;    0,000;-11,00000
 674,81;  474,000;  433,500;    0,000;40,50000
 675,13;  467,500;  437,000;    0,000;30,50000
 675,46;  470,500;  435,000;    0,000;35,50000
 675,78;  467,500;  425,000;    0,000;42,50000
 676,11;  455,000;  416,000;    0,000;39,00000
 676,43;  423,000;  455,500;    0,000;-32,50000
 676,76;  492,500;  427,500;    0,000;65,00000
 677,08;  488,000;  441,500;    0,000;46,50000
 677,41;  444,500;  454,000;    0,000;-9,50000
 677,73;  458,500;  406,000;    0,000;52,50000
 678,06;  449,000;  393,500;    0,000;55,50000
 678,38;  438,000;  421,500;    0,000;16,50000
 678,71;  458,500;  418,500;    0,000;40,00000
 679,03;  446,000;  454,500;    0,000;-8,50000
 679,36;  477,000;  395,000;    0,000;82,00000
 679,68;  426,000;  417,500;    0,000; 8,50000
 680,01;  439,500;  428,500;    0,000;11,00000
 680,33;  462,000;  474,000;    0,000;-12,00000
 680,66;  461,000;  429,000;    0,000;32,00000
 680,98;  447,500;  451,000;    0,000;-3,50000
 681,31;  453,500;  447,500;    0,000; 6,00000
 681,63;  461,500;  446,000;    0,000;15,50000
 681,96;  481,000;  401,500;    0,000;79,50000
 682,28;  446,500;  405,000;    0,000;41,50000
 682,61;  402,500;  424,000;    0,000;-21,50000
 682,93;  457,500;  459,500;    0,000;-2,00000
 683,26;  470,500;  423,000;    0,000;47,50000
 683,58;  442,500;  446,500;    0,000;-4,00000
 683,91;  435,000;  427,500;    0,000; 7,50000
 684,23;  461,000;  437,500;    0,000;23,50000
 684,56;  464,500;  442,500;    0,000;22,00000
 684,88;  491,000;  489,500;    0,000; 1,50000
 685,20;  427,000;  431,000;    0,000;-4,00000
 685,53;  441,500;  428,500;    0,000;13,00000
 685,85;  475,000;  428,500;    0,000;46,50000
 686,18;  487,000;  486,000;    0,000; 1,00000
 686,50;  449,000;  379,500;    0,000;69,50000
 686,83;  493,500;  433,000;    0,000;60,50000
 687,15;  443,500;  408,000;    0,000;35,50000
 687,48;  437,000;  411,000;    0,000;26,00000
 687,80;  465,000;  413,500;    0,000;51,50000
 688,13;  427,000;  426,500;    0,000; 0,50000
 688,45;  447,500;  390,500;    0,000;57,00000
 688,78;  426,500;  399,000;    0,000;27,50000
 689,10;  422,500;  433,500;    0,000;-11,00000
 689,43;  464,000;  418,500;    0,000;45,50000
 689,75;  471,000;  432,000;    0,000;39,00000
 690,07;  416,500;  418,000;    0,000;-1,50000
 690,40;  463,000;  420,000;    0,000;43,00000
 690,72;  489,000;  433,500;    0,000;55,50000
 691,05;  498,500;  389,000;    0,000;109,50000
 691,37;  438,500;  446,500;    0,000;-8,00000
 691,70;  384,000;  403,000;    0,000;-19,00000
 692,02;  436,000;  401,000;    0,000;35,00000
 692,35;  432,000;  415,500;    0,000;16,50000
 692,67;  451,000;  432,000;    0,000;19,00000
 693,00;  434,000;  373,000;    0,000;61,00000
 693,32;  476,000;  421,000;    0,000;55,00000
 693,64;  463,500;  443,000;    0,000;20,50000
 693,97;  435,500;  449,500;    0,000;-14,00000
 694,29;  445,500;  400,000;    0,000;45,50000
 694,62;  452,000;  420,500;    0,000;31,50000
 694,94;  453,500;  462,500;    0,000;-9,00000
 695,27;  465,500;  414,500;    0,000;51,00000
 695,59;  434,500;  417,500;    0,000;17,00000
 695,91;  452,500;  469,500;    0,000;-17,00000
 696,24;  448,500;  373,000;    0,000;75,50000
 696,56;  446,500;  463,000;    0,000;-16,50000
 696,89;  447,500;  411,000;    0,000;36,50000
 697,21;  481,000;  415,500;    0,000;65,50000
 697,54;  451,000;  450,500;    0,000; 0,50000
 697,86;  456,000;  426,500;    0,000;29,50000
 698,18;  438,000;  475,000;    0,000;-37,00000
 698,51;  456,500;  420,500;    0,000;36,00000
 698,83;  465,000;  449,500;    0,000;15,50000
 699,16;  431,500;  442,000;    0,000;-10,50000
 699,48;  487,500;  386,000;    0,000;101,50000
 699,80;  439,000;  455,000;    0,000;-16,00000
 700,13;  436,000;  408,000;    0,000;28,00000
 700,45;  482,000;  390,500;    0,000;91,50000
 700,78;  468,500;  467,000;    0,000; 1,50000
 701,10;  435,500;  464,500;    0,000;-29,00000
 701,43;  432,500;  403,000;    0,000;29,50000
 701,75;  454,500;  399,500;    0,000;55,00000
 702,07;  486,000;  420,000;    0,000;66,00000
 702,40;  448,000;  445,500;    0,000; 2,50000
 702,72;  471,500;  404,000;    0,000;67,50000
 703,05;  469,000;  446,000;    0,000;23,00000
 703,37;  448,000;  477,500;    0,000;-29,50000
 703,69;  491,000;  443,500;    0,000;47,50000
 704,02;  400,000;  394,500;    0,000; 5,50000
 704,34;  444,500;  420,500;    0,000;24,00000
 704,67;  491,500;  428,500;    0,000;63,00000
 704,99;  458,500;  451,500;    0,000; 7,00000
 705,31;  459,000;  489,500;    0,000;-30,50000
 705,64;  487,500;  434,000;    0,000;53,50000
 705,96;  443,000;  419,000;    0,000;24,00000
 706,28;  445,500;  431,000;    0,000;14,50000
 706,61;  475,000;  439,500;    0,000;35,50000
 706,93;  442,000;  461,500;    0,000;-19,50000
 707,26;  458,500;  424,000;    0,000;34,50000
 707,58;  443,500;  409,500;    0,000;34,00000
 707,90;  483,500;  434,000;    0,000;49,50000
 708,23;  462,500;  431,500;    0,000;31,00000
 708,55;  428,500;  428,500;    0,000; 0,00000
 708,88;  483,000;  402,500;    0,000;80,50000
 709,20;  465,500;  417,500;    0,000;48,00000
 709,52;  406,500;  419,500;    0,000;-13,00000
 709,85;  422,000;  386,500;    0,000;35,50000
 710,17;  439,000;  406,000;    0,000;33,00000
 710,49;  468,000;  413,000;    0,000;55,00000
 710,82;  465,500;  426,500;    0,000;39,00000
 711,14;  451,000;  497,500;    0,000;-46,50000
 711,46;  435,500;  445,000;    0,000;-9,50000
 711,79;  481,500;  458,000;    0,000;23,50000
 712,11;  445,500;  404,000;    0,000;41,50000
 712,44;  456,500;  442,000;    0,000;14,50000
 712,76;  417,000;  438,500;    0,000;-21,50000
 713,08;  475,500;  432,500;    0,000;43,00000
 713,41;  405,500;  425,500;    0,000;-20,00000
 713,73;  506,500;  409,500;    0,000;97,00000
 714,05;  451,000;  486,500;    0,000;-35,50000
 714,38;  472,000;  443,000;    0,000;29,00000
 714,70;  452,500;  459,000;    0,000;-6,50000
 715,02;  468,500;  440,500;    0,000;28,00000
 715,35;  447,000;  444,500;    0,000; 2,50000
 715,67;  443,000;  479,000;    0,000;-36,00000
 715,99;  461,500;  419,500;    0,000;42,00000
 716,32;  470,000;  446,000;    0,000;24,00000
 716,64;  484,000;  506,000;    0,000;-22,00000
 716,96;  465,000;  433,000;    0,000;32,00000
 717,29;  428,500;  399,500;    0,000;29,00000
 717,61;  497,500;  429,500;    0,000;68,00000
 717,93;  450,500;  468,000;    0,000;-17,50000
 718,26;  452,000;  425,500;    0,000;26,50000
 718,58;  436,500;  426,000;    0,000;10,50000
 718,90;  494,000;  417,500;    0,000;76,50000
 719,23;  439,500;  414,500;    0,000;25,00000
 719,55;  475,000;  461,000;    0,000;14,00000
 719,87;  449,500;  423,500;    0,000;26,00000
 720,20;  473,000;  387,500;    0,000;85,50000
 720,52;  453,000;  438,500;    0,000;14,50000
 720,84;  458,500;  431,000;    0,000;27,50000
 721,17;  457,500;  417,000;    0,000;40,50000
 721,49;  404,500;  476,500;    0,000;-72,00000
 721,81;  424,000;  431,500;    0,000;-7,50000
 722,14;  454,500;  413,000;    0,000;41,50000
 722,46;  439,000;  435,500;    0,000; 3,50000
 722,78;  431,500;  410,000;    0,000;21,50000
 723,11;  437,000;  421,000;    0,000;16,00000
 723,43;  469,000;  486,500;    0,000;-17,50000
 723,75;  437,000;  445,000;    0,000;-8,00000
 724,08;  436,500;  441,500;    0,000;-5,00000
 724,40;  417,500;  419,500;    0,000;-2,00000
 724,72;  467,500;  466,500;    0,000; 1,00000
 725,04;  481,500;  435,000;    0,000;46,50000
 725,37;  435,500;  450,000;    0,000;-14,50000
 725,69;  425,000;  430,500;    0,000;-5,50000
 726,01;  418,500;  439,500;    0,000;-21,00000
 726,34;  448,500;  434,000;    0,000;14,50000
 726,66;  431,500;  439,000;    0,000;-7,50000
 726,98;  451,500;  418,000;    0,000;33,50000
 727,31;  473,500;  453,000;    0,000;20,50000
 727,63;  436,000;  446,500;    0,000;-10,50000
 727,95;  407,000;  398,500;    0,000; 8,50000
 728,27;  447,500;  447,500;    0,000; 0,00000
 728,60;  423,500;  435,000;    0,000;-11,50000
 728,92;  484,500;  436,500;    0,000;48,00000
 729,24;  471,000;  428,000;    0,000;43,00000
 729,57;  465,500;  444,000;    0,000;21,50000
 729,89;  447,500;  440,500;    0,000; 7,00000
 730,21;  501,500;  444,000;    0,000;57,50000
 730,53;  450,000;  421,000;    0,000;29,00000
 730,86;  468,500;  415,000;    0,000;53,50000
 731,18;  449,500;  420,500;    0,000;29,00000
 731,50;  462,500;  450,000;    0,000;12,50000
 731,82;  436,500;  460,500;    0,000;-24,00000
 732,15;  422,000;  433,500;    0,000;-11,50000
 732,47;  424,000;  405,500;    0,000;18,50000
 732,79;  490,500;  386,000;    0,000;104,50000
 733,12;  471,000;  449,500;    0,000;21,50000
 733,44;  443,000;  402,000;    0,000;41,00000
 733,76;  498,500;  423,500;    0,000;75,00000
 734,08;  491,000;  429,500;    0,000;61,50000
 734,41;  469,000;  443,000;    0,000;26,00000
 734,73;  453,500;  445,500;    0,000; 8,00000
 735,05;  476,500;  396,500;    0,000;80,00000
 735,37;  429,000;  360,500;    0,000;68,50000
 735,70;  477,500;  420,500;    0,000;57,00000
 736,02;  463,500;  434,000;    0,000;29,50000
 736,34;  450,500;  451,500;    0,000;-1,00000
 736,66;  484,000;  431,000;    0,000;53,00000
 736,99;  462,000;  419,000;    0,000;43,00000
 737,31;  436,500;  408,000;    0,000;28,50000
 737,63;  453,500;  405,000;    0,000;48,50000
 737,95;  491,000;  421,500;    0,000;69,50000
 738,28;  437,000;  413,500;    0,000;23,50000
 738,60;  482,500;  441,000;    0,000;41,50000
 738,92;  441,000;  431,500;    0,000; 9,50000
 739,24;  430,500;  432,000;    0,000;-1,50000
 739,57;  418,500;  464,500;    0,000;-46,00000
 739,89;  436,000;  474,500;    0,000;-38,50000
 740,21;  413,000;  402,000;    0,000;11,00000
 740,53;  487,000;  412,500;    0,000;74,50000
 740,86;  462,000;  413,500;    0,000;48,50000
 741,18;  488,000;  407,000;    0,000;81,00000
 741,50;  444,000;  447,000;    0,000;-3,00000
 741,82;  441,000;  426,000;    0,000;15,00000
 742,14;  445,500;  473,000;    0,000;-27,50000
 742,47;  450,000;  400,500;    0,000;49,50000
 742,79;  474,000;  452,000;    0,000;22,00000
 743,11;  429,000;  428,500;    0,000; 0,50000
 743,43;  434,500;  419,000;    0,000;15,50000
 743,76;  483,500;  423,500;    0,000;60,00000
 744,08;  474,500;  485,000;    0,000;-10,50000
 744,40;  465,000;  456,500;    0,000; 8,50000
 744,72;  487,500;  490,000;    0,000;-2,50000
 745,04;  451,000;  417,500;    0,000;33,50000
 745,37;  490,500;  442,500;    0,000;48,00000
 745,69;  465,000;  428,000;    0,000;37,00000
 746,01;  442,000;  449,000;    0,000;-7,00000
 746,33;  468,500;  388,500;    0,000;80,00000
 746,66;  494,000;  478,500;    0,000;15,50000
 746,98;  423,000;  461,000;    0,000;-38,00000
 747,30;  444,500;  438,000;    0,000; 6,50000
 747,62;  421,500;  428,000;    0,000;-6,50000
 747,94;  486,000;  402,000;    0,000;84,00000
 748,27;  465,000;  397,000;    0,000;68,00000
 748,59;  447,000;  465,500;    0,000;-18,50000
 748,91;  447,000;  421,500;    0,000;25,50000
 749,23;  429,500;  476,000;    0,000;-46,50000
 749,55;  452,000;  465,500;    0,000;-13,50000
 749,88;  449,000;  424,000;    0,000;25,00000
 750,20;  454,500;  395,500;    0,000;59,00000
 750,52;  443,500;  421,500;    0,000;22,00000
 750,84;  463,500;  454,500;    0,000; 9,00000
 751,16;  405,500;  418,500;    0,000;-13,00000
 751,48;  486,500;  409,500;    0,000;77,00000
 751,81;  460,000;  402,500;    0,000;57,50000
 752,13;  470,500;  409,500;    0,000;61,00000
 752,45;  458,500;  400,000;    0,000;58,50000
 752,77;  472,500;  452,000;    0,000;20,50000
 753,09;  473,000;  385,500;    0,000;87,50000
 753,42;  450,000;  448,000;    0,000; 2,00000
 753,74;  411,000;  420,500;    0,000;-9,50000
 754,06;  485,000;  424,000;    0,000;61,00000
 754,38;  440,000;  419,500;    0,000;20,50000
 754,70;  435,500;  412,500;    0,000;23,00000
 755,02;  441,000;  419,000;    0,000;22,00000
 755,35;  446,500;  439,000;    0,000; 7,50000
 755,67;  482,500;  423,500;    0,000;59,00000
 755,99;  461,000;  442,500;    0,000;18,50000
 756,31;  469,500;  441,000;    0,000;28,50000
 756,63;  445,000;  440,000;    0,000; 5,00000
 756,95;  446,000;  396,500;    0,000;49,50000
 757,28;  467,000;  402,500;    0,000;64,50000
 757,60;  456,500;  442,000;    0,000;14,50000
 757,92;  448,500;  453,500;    0,000;-5,00000
 758,24;  484,000;  438,000;    0,000;46,00000
 758,56;  425,000;  436,000;    0,000;-11,00000
 758,88;  435,500;  452,000;    0,000;-16,50000
 759,20;  460,000;  413,000;    0,000;47,00000
 759,53;  457,000;  411,500;    0,000;45,50000
 759,85;  478,500;  451,500;    0,000;27,00000
 760,17;  505,500;  458,000;    0,000;47,50000
 760,49;  446,500;  458,000;    0,000;-11,50000
 760,81;  469,500;  449,500;    0,000;20,00000
 761,13;  462,000;  400,500;    0,000;61,50000
 761,46;  464,000;  455,500;    0,000; 8,50000
 761,78;  482,500;  398,000;    0,000;84,50000
 762,10;  452,000;  443,000;    0,000; 9,00000
 762,42;  436,500;  390,500;    0,000;46,00000
 762,74;  479,000;  422,000;    0,000;57,00000
 763,06;  472,000;  404,500;    0,000;67,50000
 763,38;  468,000;  416,000;    0,000;52,00000
 763,70;  428,500;  407,500;    0,000;21,00000
 764,03;  431,000;  420,000;    0,000;11,00000
 764,35;  464,500;  427,500;    0,000;37,00000
 764,67;  470,500;  480,000;    0,000;-9,50000
 764,99;  436,500;  447,000;    0,000;-10,50000
 765,31;  463,000;  417,500;    0,000;45,50000
 765,63;  473,500;  402,000;    0,000;71,50000
 765,95;  435,000;  467,500;    0,000;-32,50000
 766,27;  466,000;  421,000;    0,000;45,00000
 766,60;  480,000;  443,500;    0,000;36,50000
 766,92;  429,000;  431,500;    0,000;-2,50000
 767,24;  418,500;  475,000;    0,000;-56,50000
 767,56;  466,500;  435,500;    0,000;31,00000
 767,88;  473,000;  398,000;    0,000;75,00000
 768,20;  423,500;  442,500;    0,000;-19,00000
 768,52;  424,500;  391,500;    0,000;33,00000
 768,84;  515,000;  419,500;    0,000;95,50000
 769,16;  448,000;  443,500;    0,000; 4,50000
 769,49;  430,500;  439,000;    0,000;-8,50000
 769,81;  445,500;  426,000;    0,000;19,50000
 770,13;  454,000;  421,500;    0,000;32,50000
 770,45;  455,500;  446,500;    0,000; 9,00000
 770,77;  453,500;  428,500;    0,000;25,00000
 771,09;  461,000;  468,500;    0,000;-7,50000
 771,41;  431,500;  377,500;    0,000;54,00000
 771,73;  440,000;  413,500;    0,000;26,50000
 772,05;  433,500;  419,000;    0,000;14,50000
 772,37;  434,500;  431,000;    0,000; 3,50000
 772,70;  426,000;  472,000;    0,000;-46,00000
 773,02;  467,500;  432,500;    0,000;35,00000
 773,34;  447,000;  429,500;    0,000;17,50000
 773,66;  452,500;  443,500;    0,000; 9,00000
 773,98;  474,000;  400,000;    0,000;74,00000
 774,30;  464,500;  432,000;    0,000;32,50000
 774,62;  425,500;  448,000;    0,000;-22,50000
 774,94;  440,000;  463,500;    0,000;-23,50000
 775,26;  434,000;  421,500;    0,000;12,50000
 775,58;  433,000;  449,000;    0,000;-16,00000
 775,90;  468,000;  441,500;    0,000;26,50000
 776,22;  520,500;  447,000;    0,000;73,50000
 776,54;  444,000;  438,500;    0,000; 5,50000
 776,87;  432,500;  410,500;    0,000;22,00000
 777,19;  462,000;  435,000;    0,000;27,00000
 777,51;  440,000;  409,500;    0,000;30,50000
 777,83;  447,000;  387,500;    0,000;59,50000
 778,15;  483,000;  403,000;    0,000;80,00000
 778,47;  477,000;  439,000;    0,000;38,00000
 778,79;  449,500;  382,000;    0,000;67,50000
 779,11;  449,500;  451,500;    0,000;-2,00000
 779,43;  435,000;  461,500;    0,000;-26,50000
 779,75;  440,000;  411,500;    0,000;28,50000
 780,07;  438,000;  455,500;    0,000;-17,50000
 780,39;  454,500;  413,500;    0,000;41,00000
 780,71;  461,500;  399,500;    0,000;62,00000
 781,03;  465,500;  428,500;    0,000;37,00000
 781,35;  468,500;  454,500;    0,000;14,00000
 781,67;  496,000;  491,500;    0,000; 4,50000
 781,99;  436,000;  441,500;    0,000;-5,50000
 782,32;  421,500;  456,500;    0,000;-35,00000
 782,64;  469,500;  435,000;    0,000;34,50000
 782,96;  452,000;  436,000;    0,000;16,00000
 783,28;  463,500;  414,500;    0,000;49,00000
 783,60;  473,000;  414,500;    0,000;58,50000
 783,92;  454,500;  432,000;    0,000;22,50000
 784,24;  459,500;  466,000;    0,000;-6,50000
 784,56;  462,000;  435,000;    0,000;27,00000
 784,88;  446,500;  428,000;    0,000;18,50000
 785,20;  443,000;  464,000;    0,000;-21,00000
 785,52;  469,000;  420,500;    0,000;48,50000
 785,84;  459,500;  422,500;    0,000;37,00000
 786,16;  483,500;  422,500;    0,000;61,00000
 786,48;  446,000;  402,500;    0,000;43,50000
 786,80;  482,500;  444,500;    0,000;38,00000
 787,12;  509,500;  423,000;    0,000;86,50000
 787,44;  461,500;  444,000;    0,000;17,50000
 787,76;  486,500;  446,000;    0,000;40,50000
 788,08;  471,500;  431,000;    0,000;40,50000
 788,40;  455,000;  413,000;    0,000;42,00000
 788,72;  430,500;  390,000;    0,000;40,50000
 789,04;  457,500;  429,000;    0,000;28,50000
 789,36;  489,000;  469,000;    0,000;20,00000
 789,68;  466,500;  419,500;    0,000;47,00000
 790,00;  452,000;  409,500;    0,000;42,50000
 790,32;  428,000;  417,000;    0,000;11,00000
 790,64;  411,500;  408,500;    0,000; 3,00000
 790,96;  468,500;  440,000;    0,000;28,50000
 791,28;  482,000;  467,500;    0,000;14,50000
 791,60;  409,000;  397,500;    0,000;11,50000
 791,92;  461,000;  402,000;    0,000;59,00000
 792,24;  452,500;  446,000;    0,000; 6,50000
 792,56;  449,000;  447,500;    0,000; 1,50000
 792,88;  462,000;  431,500;    0,000;30,50000
 793,20;  478,500;  419,500;    0,000;59,00000
 793,52;  439,000;  445,000;    0,000;-6,00000
 793,84;  435,000;  464,000;    0,000;-29,00000
 794,16;  477,000;  432,500;    0,000;44,50000
 794,48;  476,500;  428,500;    0,000;48,00000
 794,80;  429,000;  408,500;    0,000;20,50000
 795,12;  461,000;  448,000;    0,000;13,00000
 795,44;  473,500;  411,000;    0,000;62,50000
 795,76;  456,000;  412,000;    0,000;44,00000
 796,08;  442,000;  408,000;    0,000;34,00000
 796,40;  458,000;  414,000;    0,000;44,00000
 796,72;  471,000;  441,500;    0,000;29,50000
 797,04;  471,500;  438,500;    0,000;33,00000
 797,36;  489,000;  434,000;    0,000;55,00000
 797,68;  497,000;  371,000;    0,000;126,00000
 798,00;  450,500;  440,500;    0,000;10,00000
 798,32;  450,000;  461,500;    0,000;-11,50000
 798,64;  412,500;  428,000;    0,000;-15,50000
 798,96;  464,500;  402,000;    0,000;62,50000
 799,28;  468,500;  441,500;    0,000;27,00000
 799,60;  456,000;  423,000;    0,000;33,00000
 799,92;  459,000;  427,500;    0,000;31,50000
 800,24;  486,000;  455,500;    0,000;30,50000
 800,56;  468,000;  415,500;    0,000;52,50000
 800,88;  457,000;  429,500;    0,000;27,50000
 801,20;  458,500;  439,000;    0,000;19,50000
 801,52;  458,500;  436,500;    0,000;22,00000
 801,83;  470,000;  416,500;    0,000;53,50000
 802,15;  454,000;  435,500;    0,000;18,50000
 802,47;  483,000;  439,500;    0,000;43,50000
 802,79;  487,000;  444,500;    0,000;42,50000
 803,11;  469,000;  468,000;    0,000; 1,00000
 803,43;  446,500;  461,000;    0,000;-14,50000
 803,75;  457,000;  413,500;    0,000;43,50000
 804,07;  443,500;  472,500;    0,000;-29,00000
 804,39;  441,000;  396,000;    0,000;45,00000
 804,71;  424,000;  412,500;    0,000;11,50000
 805,03;  467,000;  453,000;    0,000;14,00000
 805,35;  443,000;  433,500;    0,000; 9,50000
 805,67;  467,500;  413,000;    0,000;54,50000
 805,99;  481,000;  457,500;    0,000;23,50000
 806,31;  474,500;  413,000;    0,000;61,50000
 806,63;  465,500;  419,000;    0,000;46,50000
 806,95;  421,500;  428,500;    0,000;-7,00000
 807,26;  450,500;  439,000;    0,000;11,50000
 807,58;  408,000;  425,500;    0,000;-17,50000
 807,90;  464,000;  458,000;    0,000; 6,00000
 808,22;  448,500;  400,500;    0,000;48,00000
 808,54;  408,500;  438,000;    0,000;-29,50000
 808,86;  455,000;  426,000;    0,000;29,00000
 809,18;  454,500;  428,500;    0,000;26,00000
 809,50;  415,500;  404,000;    0,000;11,50000
 809,82;  453,000;  390,000;    0,000;63,00000
 810,14;  457,000;  424,500;    0,000;32,50000
 810,46;  451,500;  463,500;    0,000;-12,00000
 810,78;  450,000;  435,000;    0,000;15,00000
 811,10;  475,500;  439,500;    0,000;36,00000
 811,41;  454,500;  403,000;    0,000;51,50000
 811,73;  451,000;  463,000;    0,000;-12,00000
 812,05;  426,500;  416,500;    0,000;10,00000
 812,37;  454,000;  442,500;    0,000;11,50000
 812,69;  444,500;  396,500;    0,000;48,00000
 813,01;  434,000;  381,500;    0,000;52,50000
 813,33;  467,500;  457,500;    0,000;10,00000
 813,65;  481,000;  432,000;    0,000;49,00000
 813,97;  423,500;  436,000;    0,000;-12,50000
 814,29;  458,000;  476,000;    0,000;-18,00000
 814,60;  444,500;  394,500;    0,000;50,00000
 814,92;  468,500;  440,500;    0,000;28,00000
 815,24;  439,000;  428,500;    0,000;10,50000
 815,56;  417,500;  466,500;    0,000;-49,00000
 815,88;  437,000;  408,000;    0,000;29,00000
 816,20;  466,000;  391,000;    0,000;75,00000
 816,52;  487,000;  418,000;    0,000;69,00000
 816,84;  430,000;  394,000;    0,000;36,00000
 817,16;  438,500;  395,000;    0,000;43,50000
 817,47;  456,000;  404,500;    0,000;51,50000
 817,79;  455,000;  391,000;    0,000;64,00000
 818,11;  527,500;  444,000;    0,000;83,50000
 818,43;  468,000;  386,500;    0,000;81,50000
 818,75;  409,000;  426,000;    0,000;-17,00000
 819,07;  448,000;  447,000;    0,000; 1,00000
 819,39;  429,500;  395,500;    0,000;34,00000
 819,71;  479,500;  427,500;    0,000;52,00000
 820,02;  483,500;  427,000;    0,000;56,50000
 820,34;  462,500;  473,000;    0,000;-10,50000
 820,66;  492,500;  429,500;    0,000;63,00000
 820,98;  438,500;  448,500;    0,000;-10,00000
 821,30;  419,500;  427,500;    0,000;-8,00000
 821,62;  440,500;  443,500;    0,000;-3,00000
 821,94;  455,000;  417,500;    0,000;37,50000
 822,25;  401,000;  478,500;    0,000;-77,50000
 822,57;  493,000;  449,000;    0,000;44,00000
 822,89;  494,500;  397,500;    0,000;97,00000
 823,21;  443,000;  416,500;    0,000;26,50000
 823,53;  450,500;  448,500;    0,000; 2,00000
 823,85;  469,000;  414,000;    0,000;55,00000
 824,17;  448,500;  440,000;    0,000; 8,50000
 824,48;  449,000;  428,500;    0,000;20,50000
 824,80;  459,000;  415,000;    0,000;44,00000
 825,12;  481,000;  433,000;    0,000;48,00000
 825,44;  436,000;  407,000;    0,000;29,00000
 825,76;  464,000;  379,000;    0,000;85,00000
 826,08;  434,500;  407,000;    0,000;27,50000
 826,39;  456,500;  423,000;    0,000;33,50000
 826,71;  458,500;  421,500;    0,000;37,00000
 827,03;  434,500;  440,000;    0,000;-5,50000
 827,35;  467,000;  432,500;    0,000;34,50000
 827,67;  462,000;  425,000;    0,000;37,00000
 827,99;  387,000;  431,500;    0,000;-44,50000
 828,30;  498,000;  386,500;    0,000;111,50000
 828,62;  503,000;  437,000;    0,000;66,00000
 828,94;  461,500;  375,000;    0,000;86,50000
 829,26;  499,500;  405,000;    0,000;94,50000
 829,58;  437,500;  465,500;    0,000;-28,00000
 829,90;  475,500;  456,000;    0,000;19,50000
 830,21;  466,000;  455,000;    0,000;11,00000
 830,53;  493,500;  438,500;    0,000;55,00000
 830,85;  504,500;  463,500;    0,000;41,00000
 831,17;  438,500;  434,500;    0,000; 4,00000
 831,49;  471,500;  416,000;    0,000;55,50000
 831,81;  454,000;  439,000;    0,000;15,00000
 832,12;  451,500;  413,000;    0,000;38,50000
 832,44;  495,000;  416,500;    0,000;78,50000
 832,76;  501,000;  440,000;    0,000;61,00000
 833,08;  463,500;  440,000;    0,000;23,50000
 833,40;  457,500;  408,000;    0,000;49,50000
 833,71;  440,500;  420,500;    0,000;20,00000
 834,03;  477,000;  465,000;    0,000;12,00000
 834,35;  457,500;  443,500;    0,000;14,00000
 834,67;  433,500;  401,500;    0,000;32,00000
 834,99;  463,500;  395,500;    0,000;68,00000
 835,30;  437,000;  444,000;    0,000;-7,00000
 835,62;  421,000;  406,000;    0,000;15,00000
 835,94;  432,500;  444,500;    0,000;-12,00000
 836,26;  398,500;  409,500;    0,000;-11,00000
 836,58;  451,500;  425,500;    0,000;26,00000
 836,89;  426,000;  437,000;    0,000;-11,00000
 837,21;  499,500;  424,000;    0,000;75,50000
 837,53;  443,000;  419,000;    0,000;24,00000
 837,85;  444,000;  443,500;    0,000; 0,50000
 838,16;  432,500;  444,500;    0,000;-12,00000
 838,48;  442,000;  452,500;    0,000;-10,50000
 838,80;  467,500;  417,500;    0,000;50,00000
 839,12;  442,000;  387,500;    0,000;54,50000
 839,44;  447,500;  422,500;    0,000;25,00000
 839,75;  447,000;  443,000;    0,000; 4,00000
 840,07;  471,000;  453,000;    0,000;18,00000
 840,39;  465,500;  409,500;    0,000;56,00000
 840,71;  465,500;  397,500;    0,000;68,00000
 841,02;  443,500;  437,000;    0,000; 6,50000
 841,34;  423,000;  422,500;    0,000; 0,50000
 841,66;  456,000;  442,000;    0,000;14,00000
 841,98;  497,500;  375,500;    0,000;122,00000
 842,29;  425,500;  385,500;    0,000;40,00000
 842,61;  438,500;  437,500;    0,000; 1,00000
 842,93;  438,000;  451,000;    0,000;-13,00000
 843,25;  440,500;  439,500;    0,000; 1,00000
 843,57;  454,500;  411,500;    0,000;43,00000
 843,88;  408,500;  451,500;    0,000;-43,00000
 844,20;  466,000;  448,500;    0,000;17,50000
 844,52;  439,500;  428,500;    0,000;11,00000
 844,84;  478,000;  446,500;    0,000;31,50000
 845,15;  433,000;  405,500;    0,000;27,50000
 845,47;  469,000;  453,500;    0,000;15,50000
 845,79;  416,500;  425,000;    0,000;-8,50000
 846,11;  421,500;  408,000;    0,000;13,50000
 846,42;  497,500;  398,000;    0,000;99,50000
 846,74;  443,500;  428,500;    0,000;15,00000
 847,06;  449,000;  447,500;    0,000; 1,50000
 847,37;  415,000;  426,000;    0,000;-11,00000
 847,69;  453,500;  420,500;    0,000;33,00000
 848,01;  459,500;  444,000;    0,000;15,50000
 848,33;  391,500;  407,000;    0,000;-15,50000
 848,64;  428,500;  450,500;    0,000;-22,00000
 848,96;  451,000;  432,500;    0,000;18,50000
 849,28;  443,500;  404,000;    0,000;39,50000
 849,60;  437,500;  434,500;    0,000; 3,00000
 849,91;  454,500;  428,500;    0,000;26,00000
 850,23;  413,000;  432,000;    0,000;-19,00000
 850,55;  458,000;  453,000;    0,000; 5,00000
 850,86;  447,500;  384,500;    0,000;63,00000
 851,18;  447,500;  388,000;    0,000;59,50000
 851,50;  476,000;  421,000;    0,000;55,00000
 851,82;  463,500;  391,000;    0,000;72,50000
 852,13;  479,000;  417,000;    0,000;62,00000
 852,45;  445,500;  430,000;    0,000;15,50000
 852,77;  411,500;  408,500;    0,000; 3,00000
 853,08;  438,500;  426,500;    0,000;12,00000
 853,40;  427,500;  421,500;    0,000; 6,00000
 853,72;  475,000;  418,500;    0,000;56,50000
 854,04;  434,500;  438,500;    0,000;-4,00000
 854,35;  501,500;  494,000;    0,000; 7,50000
 854,67;  412,000;  422,000;    0,000;-10,00000
 854,99;  482,500;  448,500;    0,000;34,00000
 855,30;  443,500;  421,000;    0,000;22,50000
 855,62;  431,000;  421,000;    0,000;10,00000
 855,94;  409,500;  423,500;    0,000;-14,00000
 856,25;  475,000;  459,000;    0,000;16,00000
 856,57;  426,000;  384,000;    0,000;42,00000
 856,89;  442,500;  384,000;    0,000;58,50000
 857,21;  452,500;  408,000;    0,000;44,50000
 857,52;  457,500;  402,500;    0,000;55,00000
 857,84;  459,000;  453,000;    0,000; 6,00000
 858,16;  486,500;  426,000;    0,000;60,50000
 858,47;  440,000;  424,000;    0,000;16,00000
 858,79;  452,000;  413,500;    0,000;38,50000
 859,11;  415,500;  413,000;    0,000; 2,50000
 859,42;  500,500;  445,000;    0,000;55,50000
 859,74;  455,000;  415,500;    0,000;39,50000
 860,06;  444,500;  429,500;    0,000;15,00000
 860,37;  456,000;  448,500;    0,000; 7,50000
 860,69;  446,500;  435,000;    0,000;11,50000
 861,01;  440,000;  395,000;    0,000;45,00000
 861,32;  484,000;  440,500;    0,000;43,50000
 861,64;  441,000;  434,500;    0,000; 6,50000
 861,96;  421,000;  446,000;    0,000;-25,00000
 862,27;  462,000;  419,000;    0,000;43,00000
 862,59;  403,000;  413,000;    0,000;-10,00000
 862,91;  410,000;  427,000;    0,000;-17,00000
 863,22;  429,500;  462,000;    0,000;-32,50000
 863,54;  445,000;  435,000;    0,000;10,00000
 863,86;  432,000;  431,500;    0,000; 0,50000
 864,17;  466,500;  419,000;    0,000;47,50000
 864,49;  462,500;  442,500;    0,000;20,00000
 864,81;  479,500;  481,000;    0,000;-1,50000
 865,12;  434,000;  410,000;    0,000;24,00000
 865,44;  466,500;  405,500;    0,000;61,00000
 865,76;  481,000;  445,500;    0,000;35,50000
 866,07;  458,000;  397,000;    0,000;61,00000
 866,39;  417,500;  395,000;    0,000;22,50000
 866,71;  467,000;  401,000;    0,000;66,00000
 867,02;  409,000;  447,500;    0,000;-38,50000
 867,34;  446,500;  434,500;    0,000;12,00000
 867,65;  438,500;  441,500;    0,000;-3,00000
 867,97;  460,500;  403,500;    0,000;57,00000
 868,29;  460,000;  438,000;    0,000;22,00000
 868,60;  449,500;  428,500;    0,000;21,00000
 868,92;  471,000;  411,000;    0,000;60,00000
 869,24;  454,000;  439,500;    0,000;14,50000
 869,55;  440,000;  434,500;    0,000; 5,50000
 869,87;  495,000;  411,000;    0,000;84,00000
 870,18;  437,500;  461,000;    0,000;-23,50000
 870,50;  432,000;  428,000;    0,000; 4,00000
 870,82;  450,000;  416,500;    0,000;33,50000
 871,13;  497,000;  397,000;    0,000;100,00000
 871,45;  452,500;  426,500;    0,000;26,00000
 871,77;  456,500;  431,500;    0,000;25,00000
 872,08;  426,500;  431,000;    0,000;-4,50000
 872,40;  462,000;  464,000;    0,000;-2,00000
 872,71;  492,500;  453,500;    0,000;39,00000
 873,03;  418,000;  427,000;    0,000;-9,00000
 873,35;  467,000;  452,500;    0,000;14,50000
 873,66;  478,000;  415,500;    0,000;62,50000
 873,98;  483,000;  428,500;    0,000;54,50000
 874,29;  440,000;  431,500;    0,000; 8,50000
 874,61;  436,500;  469,500;    0,000;-33,00000
 874,93;  457,500;  446,000;    0,000;11,50000
 875,24;  466,500;  446,500;    0,000;20,00000
 875,56;  448,000;  440,000;    0,000; 8,00000
 875,87;  468,500;  451,500;    0,000;17,00000
 876,19;  464,000;  371,500;    0,000;92,50000
 876,51;  485,500;  454,000;    0,000;31,50000
 876,82;  464,000;  382,000;    0,000;82,00000
 877,14;  447,500;  404,500;    0,000;43,00000
 877,45;  406,000;  410,500;    0,000;-4,50000
 877,77;  447,000;  409,500;    0,000;37,50000
 878,09;  470,500;  456,000;    0,000;14,50000
 878,40;  481,500;  432,500;    0,000;49,00000
 878,72;  450,500;  430,000;    0,000;20,50000
 879,03;  475,500;  428,000;    0,000;47,50000
 879,35;  420,500;  383,500;    0,000;37,00000
 879,67;  455,000;  413,000;    0,000;42,00000
 879,98;  485,500;  394,000;    0,000;91,50000
 880,30;  503,000;  425,500;    0,000;77,50000
 880,61;  501,500;  428,000;    0,000;73,50000
 880,93;  427,000;  401,500;    0,000;25,50000
 881,24;  453,000;  424,000;    0,000;29,00000
 881,56;  489,500;  431,000;    0,000;58,50000
 881,88;  459,500;  438,500;    0,000;21,00000
 882,19;  471,500;  459,000;    0,000;12,50000
 882,51;  455,500;  392,500;    0,000;63,00000
 882,82;  448,000;  403,500;    0,000;44,50000
 883,14;  454,500;  432,000;    0,000;22,50000
 883,45;  424,500;  436,000;    0,000;-11,50000
 883,77;  431,500;  436,500;    0,000;-5,00000
 884,08;  449,500;  467,000;    0,000;-17,50000
 884,40;  426,500;  444,500;    0,000;-18,00000
 884,72;  487,000;  464,500;    0,000;22,50000
 885,03;  447,000;  446,500;    0,000; 0,50000
 885,35;  448,500;  445,000;    0,000; 3,50000
 885,66;  439,500;  436,500;    0,000; 3,00000
 885,98;  469,000;  462,000;    0,000; 7,00000
 886,29;  452,000;  424,000;    0,000;28,00000
 886,61;  470,500;  405,000;    0,000;65,50000
 886,92;  487,000;  436,000;    0,000;51,00000
 887,24;  449,500;  442,000;    0,000; 7,50000
 887,55;  455,500;  427,000;    0,000;28,50000
 887,87;  458,500;  453,500;    0,000; 5,00000
 888,19;  498,000;  390,500;    0,000;107,50000
 888,50;  510,000;  445,000;    0,000;65,00000
 888,82;  486,500;  399,000;    0,000;87,50000
 889,13;  491,500;  409,000;    0,000;82,50000
 889,45;  460,000;  382,500;    0,000;77,50000
 889,76;  464,500;  420,000;    0,000;44,50000
 890,08;  440,000;  397,000;    0,000;43,00000
 890,39;  521,000;  401,500;    0,000;119,50000
 890,71;  434,500;  392,000;    0,000;42,50000
 891,02;  451,000;  447,000;    0,000; 4,00000
 891,34;  442,000;  441,500;    0,000; 0,50000
 891,65;  491,500;  421,000;    0,000;70,50000
 891,97;  432,500;  405,500;    0,000;27,00000
 892,28;  431,000;  436,500;    0,000;-5,50000
 892,60;  451,500;  412,000;    0,000;39,50000
 892,91;  442,000;  458,500;    0,000;-16,50000
 893,23;  437,500;  411,000;    0,000;26,50000
 893,54;  464,000;  433,500;    0,000;30,50000
 893,86;  484,000;  442,000;    0,000;42,00000
 894,17;  478,500;  426,000;    0,000;52,50000
 894,49;  465,000;  424,000;    0,000;41,00000
 894,80;  436,500;  373,500;    0,000;63,00000
 895,12;  502,500;  444,500;    0,000;58,00000
 895,43;  467,500;  420,000;    0,000;47,50000
 895,75;  436,000;  408,500;    0,000;27,50000
 896,06;  440,500;  394,500;    0,000;46,00000
 896,38;  446,000;  422,500;    0,000;23,50000
 896,69;  461,000;  433,000;    0,000;28,00000
 897,01;  394,500;  454,000;    0,000;-59,50000
 897,32;  431,000;  437,000;    0,000;-6,00000
 897,64;  435,000;  398,000;    0,000;37,00000
 897,95;  485,000;  436,000;    0,000;49,00000
 898,27;  443,000;  431,000;    0,000;12,00000
 898,58;  453,000;  443,000;    0,000;10,00000
 898,90;  423,500;  409,500;    0,000;14,00000
 899,21;  429,000;  419,000;    0,000;10,00000
 899,53;  489,000;  383,000;    0,000;106,00000
 899,84;  462,500;  419,000;    0,000;43,50000
 900,16;  475,500;  409,500;    0,000;66,00000
 900,47;  456,500;  453,500;    0,000; 3,00000
 900,79;  482,000;  452,500;    0,000;29,50000
 901,10;  457,000;  431,000;    0,000;26,00000
 901,42;  417,000;  468,500;    0,000;-51,50000
 901,73;  455,500;  405,500;    0,000;50,00000
 902,05;  446,000;  391,500;    0,000;54,50000
 902,36;  434,500;  422,000;    0,000;12,50000
 902,68;  464,500;  451,000;    0,000;13,50000
 902,99;  462,000;  409,000;    0,000;53,00000
 903,30;  455,500;  426,500;    0,000;29,00000
 903,62;  485,000;  388,500;    0,000;96,50000
 903,93;  438,000;  450,500;    0,000;-12,50000
 904,25;  465,000;  409,500;    0,000;55,50000
 904,56;  440,000;  437,000;    0,000; 3,00000
 904,88;  430,500;  450,000;    0,000;-19,50000
 905,19;  458,000;  414,000;    0,000;44,00000
 905,51;  450,000;  461,000;    0,000;-11,00000
 905,82;  451,500;  439,500;    0,000;12,00000
 906,14;  496,000;  432,000;    0,000;64,00000
 906,45;  444,000;  390,000;    0,000;54,00000
 906,76;  463,000;  442,500;    0,000;20,50000
 907,08;  479,500;  426,500;    0,000;53,00000
 907,39;  436,500;  439,500;    0,000;-3,00000
 907,71;  435,500;  445,500;    0,000;-10,00000
 908,02;  476,500;  407,500;    0,000;69,00000
 908,34;  472,500;  394,000;    0,000;78,50000
 908,65;  472,500;  439,000;    0,000;33,50000
 908,96;  443,000;  427,500;    0,000;15,50000
 909,28;  446,500;  423,500;    0,000;23,00000
 909,59;  486,000;  430,500;    0,000;55,50000
 909,91;  482,000;  445,500;    0,000;36,50000
 910,22;  431,000;  461,500;    0,000;-30,50000
 910,54;  458,500;  411,500;    0,000;47,00000
 910,85;  462,000;  402,500;    0,000;59,50000
 911,16;  402,500;  457,000;    0,000;-54,50000
 911,48;  459,000;  396,500;    0,000;62,50000
 911,79;  474,500;  442,500;    0,000;32,00000
 912,11;  469,000;  390,500;    0,000;78,50000
 912,42;  440,000;  388,000;    0,000;52,00000
 912,74;  442,000;  413,500;    0,000;28,50000
 913,05;  496,000;  406,000;    0,000;90,00000
 913,36;  482,000;  405,000;    0,000;77,00000
 913,68;  428,500;  443,000;    0,000;-14,50000
 913,99;  394,500;  435,500;    0,000;-41,00000
 914,31;  421,500;  404,500;    0,000;17,00000
 914,62;  426,500;  386,000;    0,000;40,50000
 914,93;  468,000;  416,000;    0,000;52,00000
 915,25;  454,000;  436,500;    0,000;17,50000
 915,56;  442,000;  414,500;    0,000;27,50000
 915,88;  445,500;  443,000;    0,000; 2,50000
 916,19;  467,000;  430,500;    0,000;36,50000
 916,50;  459,500;  457,500;    0,000; 2,00000
 916,82;  453,000;  438,000;    0,000;15,00000
 917,13;  429,500;  440,000;    0,000;-10,50000
 917,44;  465,500;  436,000;    0,000;29,50000
 917,76;  496,000;  401,000;    0,000;95,00000
 918,07;  449,500;  386,500;    0,000;63,00000
 918,39;  476,500;  418,000;    0,000;58,50000
 918,70;  416,500;  431,000;    0,000;-14,50000
 919,01;  421,500;  415,500;    0,000; 6,00000
 919,33;  485,000;  433,500;    0,000;51,50000
 919,64;  445,500;  385,000;    0,000;60,50000
 919,96;  465,000;  412,500;    0,000;52,50000
 920,27;  470,000;  413,000;    0,000;57,00000
 920,58;  429,500;  376,500;    0,000;53,00000
 920,90;  473,500;  407,500;    0,000;66,00000
 921,21;  467,500;  430,500;    0,000;37,00000
 921,52;  474,000;  389,000;    0,000;85,00000
 921,84;  477,500;  414,500;    0,000;63,00000
 922,15;  455,500;  464,000;    0,000;-8,50000
 922,46;  445,500;  423,500;    0,000;22,00000
 922,78;  436,500;  401,000;    0,000;35,50000
 923,09;  465,000;  385,000;    0,000;80,00000
 923,41;  444,500;  399,000;    0,000;45,50000
 923,72;  442,500;  471,000;    0,000;-28,50000
 924,03;  457,500;  416,500;    0,000;41,00000
 924,35;  459,000;  414,500;    0,000;44,50000
 924,66;  451,000;  423,000;    0,000;28,00000
 924,97;  463,000;  434,500;    0,000;28,50000
 925,29;  459,000;  392,000;    0,000;67,00000
 925,60;  474,500;  448,000;    0,000;26,50000
 925,91;  468,000;  393,000;    0,000;75,00000
 926,23;  499,500;  396,500;    0,000;103,00000
 926,54;  488,000;  408,000;    0,000;80,00000
 926,85;  443,500;  429,000;    0,000;14,50000
 927,17;  441,000;  460,500;    0,000;-19,50000
 927,48;  459,000;  449,500;    0,000; 9,50000
 927,79;  473,500;  433,000;    0,000;40,50000
 928,11;  426,500;  385,500;    0,000;41,00000
 928,42;  453,500;  442,500;    0,000;11,00000
 928,73;  466,000;  438,000;    0,000;28,00000
 929,05;  412,000;  392,500;    0,000;19,50000
 929,36;  469,500;  427,500;    0,000;42,00000
 929,67;  447,000;  397,500;    0,000;49,50000
 929,99;  429,500;  399,000;    0,000;30,50000
 930,30;  435,000;  396,500;    0,000;38,50000
 930,61;  415,000;  384,000;    0,000;31,00000
 930,93;  461,500;  378,500;    0,000;83,00000
 931,24;  442,500;  383,500;    0,000;59,00000
 931,55;  389,500;  400,000;    0,000;-10,50000
 931,87;  491,500;  439,000;    0,000;52,50000
 932,18;  460,000;  446,500;    0,000;13,50000
 932,49;  447,500;  435,000;    0,000;12,50000
 932,81;  443,000;  461,500;    0,000;-18,50000
 933,12;  442,500;  410,500;    0,000;32,00000
 933,43;  441,500;  422,000;    0,000;19,50000
 933,74;  425,500;  418,000;    0,000; 7,50000
 934,06;  449,500;  409,000;    0,000;40,50000
 934,37;  445,000;  384,500;    0,000;60,50000
 934,68;  417,000;  446,000;    0,000;-29,00000
 935,00;  440,500;  438,000;    0,000; 2,50000
 935,31;  451,500;  428,000;    0,000;23,50000
 935,62;  489,500;  421,000;    0,000;68,50000
 935,94;  456,500;  395,000;    0,000;61,50000
 936,25;  498,000;  409,000;    0,000;89,00000
 936,56;  473,000;  438,500;    0,000;34,50000
 936,87;  465,500;  424,500;    0,000;41,00000
 937,19;  448,500;  376,000;    0,000;72,50000
 937,50;  446,000;  412,500;    0,000;33,50000
 937,81;  499,000;  368,500;    0,000;130,50000
 938,13;  515,500;  419,000;    0,000;96,50000
 938,44;  473,500;  448,000;    0,000;25,50000
 938,75;  462,000;  418,500;    0,000;43,50000
 939,06;  419,500;  383,000;    0,000;36,50000
 939,38;  448,000;  421,000;    0,000;27,00000
 939,69;  487,500;  429,500;    0,000;58,00000
 940,00;  467,500;  437,000;    0,000;30,50000
 940,31;  437,000;  427,000;    0,000;10,00000
 940,63;  503,500;  435,500;    0,000;68,00000
 940,94;  450,000;  416,500;    0,000;33,50000
 941,25;  466,500;  450,500;    0,000;16,00000
 941,57;  443,500;  384,000;    0,000;59,50000
 941,88;  443,000;  441,000;    0,000; 2,00000
 942,19;  484,500;  417,500;    0,000;67,00000
 942,50;  469,500;  423,000;    0,000;46,50000
 942,82;  429,000;  431,000;    0,000;-2,00000
 943,13;  473,500;  435,000;    0,000;38,50000
 943,44;  454,500;  418,500;    0,000;36,00000
 943,75;  457,000;  421,500;    0,000;35,50000
 944,07;  466,500;  435,000;    0,000;31,50000
 944,38;  483,000;  422,000;    0,000;61,00000
 944,69;  503,500;  413,000;    0,000;90,50000
 945,00;  484,000;  391,000;    0,000;93,00000
 945,32;  448,500;  444,500;    0,000; 4,00000
 945,63;  443,000;  458,000;    0,000;-15,00000
 945,94;  475,000;  408,000;    0,000;67,00000
 946,25;  427,500;  433,000;    0,000;-5,50000
 946,56;  467,500;  417,000;    0,000;50,50000
 946,88;  467,000;  422,000;    0,000;45,00000
 947,19;  485,000;  408,000;    0,000;77,00000
 947,50;  428,000;  429,000;    0,000;-1,00000
 947,81;  458,500;  402,500;    0,000;56,00000
 948,13;  466,500;  448,500;    0,000;18,00000
 948,44;  418,000;  471,500;    0,000;-53,50000
 948,75;  431,000;  423,500;    0,000; 7,50000
 949,06;  472,000;  400,000;    0,000;72,00000
 949,38;  429,000;  389,000;    0,000;40,00000
 949,69;  416,000;  396,000;    0,000;20,00000
 950,00;  433,000;  443,500;    0,000;-10,50000
 950,31;  458,000;  380,500;    0,000;77,50000
 950,62;  432,000;  427,500;    0,000; 4,50000
 950,94;  454,000;  436,000;    0,000;18,00000
 951,25;  466,500;  442,500;    0,000;24,00000
 951,56;  436,500;  431,500;    0,000; 5,00000
 951,87;  473,500;  442,000;    0,000;31,50000
 952,18;  452,500;  392,500;    0,000;60,00000
 952,50;  503,500;  385,000;    0,000;118,50000
 952,81;  451,000;  413,000;    0,000;38,00000
 953,12;  448,000;  419,500;    0,000;28,50000
 953,43;  481,500;  447,000;    0,000;34,50000
 953,74;  446,000;  448,000;    0,000;-2,00000
 954,06;  473,500;  463,000;    0,000;10,50000
 954,37;  433,500;  406,000;    0,000;27,50000
 954,68;  462,500;  433,500;    0,000;29,00000
 954,99;  460,500;  407,500;    0,000;53,00000
 955,30;  410,000;  425,500;    0,000;-15,50000
 955,62;  438,500;  424,000;    0,000;14,50000
 955,93;  458,500;  419,500;    0,000;39,00000
 956,24;  497,000;  423,500;    0,000;73,50000
 956,55;  447,000;  398,500;    0,000;48,50000
 956,86;  441,000;  462,500;    0,000;-21,50000
 957,18;  475,000;  388,500;    0,000;86,50000
 957,49;  456,000;  446,500;    0,000; 9,50000
 957,80;  457,000;  411,500;    0,000;45,50000
 958,11;  457,500;  421,000;    0,000;36,50000
 958,42;  425,500;  416,000;    0,000; 9,50000
 958,73;  442,500;  386,000;    0,000;56,50000
 959,05;  430,000;  451,000;    0,000;-21,00000
 959,36;  438,000;  393,500;    0,000;44,50000
 959,67;  406,500;  431,000;    0,000;-24,50000
 959,98;  453,500;  401,000;    0,000;52,50000
 960,29;  485,000;  438,000;    0,000;47,00000
 960,60;  479,000;  397,000;    0,000;82,00000
 960,92;  436,500;  445,500;    0,000;-9,00000
 961,23;  479,000;  415,000;    0,000;64,00000
 961,54;  450,500;  400,500;    0,000;50,00000
 961,85;  460,000;  417,500;    0,000;42,50000
 962,16;  479,500;  416,500;    0,000;63,00000
 962,47;  516,000;  412,500;    0,000;103,50000
 962,79;  495,000;  408,000;    0,000;87,00000
 963,10;  463,000;  424,000;    0,000;39,00000
 963,41;  445,500;  403,500;    0,000;42,00000
 963,72;  427,500;  418,000;    0,000; 9,50000
 964,03;  486,000;  369,000;    0,000;117,00000
 964,34;  463,000;  417,000;    0,000;46,00000
 964,65;  420,000;  398,000;    0,000;22,00000
 964,97;  444,500;  434,500;    0,000;10,00000
 965,28;  501,500;  434,500;    0,000;67,00000
 965,59;  470,500;  461,500;    0,000; 9,00000
 965,90;  465,500;  414,000;    0,000;51,50000
 966,21;  424,500;  451,500;    0,000;-27,00000
 966,52;  441,000;  427,000;    0,000;14,00000
 966,83;  451,500;  394,000;    0,000;57,50000
 967,14;  467,000;  370,500;    0,000;96,50000
 967,46;  483,500;  418,000;    0,000;65,50000
 967,77;  448,000;  388,500;    0,000;59,50000
 968,08;  506,000;  439,000;    0,000;67,00000
 968,39;  485,500;  391,500;    0,000;94,00000
 968,70;  485,500;  389,000;    0,000;96,50000
 969,01;  423,500;  406,500;    0,000;17,00000
 969,32;  472,500;  442,000;    0,000;30,50000
 969,63;  445,000;  415,500;    0,000;29,50000
 969,95;  453,500;  420,500;    0,000;33,00000
 970,26;  457,500;  410,000;    0,000;47,50000
 970,57;  471,500;  420,000;    0,000;51,50000
 970,88;  451,000;  429,000;    0,000;22,00000
 971,19;  486,500;  407,500;    0,000;79,00000
 971,50;  426,500;  436,000;    0,000;-9,50000
 971,81;  431,500;  423,500;    0,000; 8,00000
 972,12;  464,500;  438,500;    0,000;26,00000
 972,43;  441,500;  450,500;    0,000;-9,00000
 972,75;  475,000;  420,500;    0,000;54,50000
 973,06;  454,000;  431,000;    0,000;23,00000
 973,37;  456,500;  443,500;    0,000;13,00000
 973,68;  500,000;  390,000;    0,000;110,00000
 973,99;  481,500;  446,000;    0,000;35,50000
 974,30;  435,500;  429,000;    0,000; 6,50000
 974,61;  476,500;  455,500;    0,000;21,00000
 974,92;  465,000;  415,500;    0,000;49,50000
 975,23;  438,000;  392,500;    0,000;45,50000
 975,54;  468,500;  430,500;    0,000;38,00000
 975,85;  489,500;  441,500;    0,000;48,00000
 976,16;  463,000;  453,500;    0,000; 9,50000
 976,48;  434,500;  441,500;    0,000;-7,00000
 976,79;  466,000;  413,000;    0,000;53,00000
 977,10;  447,000;  402,000;    0,000;45,00000
 977,41;  472,500;  420,500;    0,000;52,00000
 977,72;  440,500;  395,500;    0,000;45,00000
 978,03;  457,000;  416,500;    0,000;40,50000
 978,34;  453,000;  436,000;    0,000;17,00000
 978,65;  470,500;  410,500;    0,000;60,00000
 978,96;  507,000;  415,000;    0,000;92,00000
 979,27;  478,000;  428,500;    0,000;49,50000
 979,58;  464,500;  491,000;    0,000;-26,50000
 979,89;  483,500;  405,500;    0,000;78,00000
 980,20;  461,000;  445,000;    0,000;16,00000
 980,51;  487,000;  405,500;    0,000;81,50000
 980,82;  422,500;  431,000;    0,000;-8,50000
 981,14;  457,000;  466,500;    0,000;-9,50000
 981,45;  440,500;  440,500;    0,000; 0,00000
 981,76;  468,500;  398,500;    0,000;70,00000
 982,07;  443,500;  397,500;    0,000;46,00000
 982,38;  456,000;  437,000;    0,000;19,00000
 982,69;  466,500;  426,000;    0,000;40,50000
 983,00;  475,000;  452,000;    0,000;23,00000
 983,31;  487,000;  416,000;    0,000;71,00000
 983,62;  431,500;  433,500;    0,000;-2,00000
 983,93;  488,000;  426,500;    0,000;61,50000
 984,24;  475,000;  435,000;    0,000;40,00000
 984,55;  428,500;  415,500;    0,000;13,00000
 984,86;  456,000;  401,500;    0,000;54,50000
 985,17;  419,500;  417,500;    0,000; 2,00000
 985,48;  440,000;  419,000;    0,000;21,00000
 985,79;  482,000;  385,500;    0,000;96,50000
 986,10;  429,000;  427,500;    0,000; 1,50000
 986,41;  474,000;  383,500;    0,000;90,50000
 986,72;  445,500;  470,500;    0,000;-25,00000
 987,03;  459,000;  381,500;    0,000;77,50000
 987,34;  459,500;  414,500;    0,000;45,00000
 987,65;  444,000;  401,500;    0,000;42,50000
 987,96;  492,000;  415,500;    0,000;76,50000
 988,27;  425,500;  383,000;    0,000;42,50000
 988,58;  491,000;  436,500;    0,000;54,50000
 988,89;  450,500;  441,000;    0,000; 9,50000
 989,20;  496,500;  401,500;    0,000;95,00000
 989,51;  428,000;  420,500;    0,000; 7,50000
 989,82;  464,500;  458,500;    0,000; 6,00000
 990,13;  481,000;  445,000;    0,000;36,00000
 990,44;  437,000;  419,500;    0,000;17,50000
 990,75;  451,000;  419,500;    0,000;31,50000
 991,06;  460,000;  397,000;    0,000;63,00000
 991,37;  435,000;  433,000;    0,000; 2,00000
 991,68;  482,000;  444,000;    0,000;38,00000
 991,99;  483,500;  402,500;    0,000;81,00000
 992,30;  460,500;  418,500;    0,000;42,00000
 992,61;  468,000;  479,000;    0,000;-11,00000
 992,92;  489,500;  413,000;    0,000;76,50000
 993,23;  492,000;  414,500;    0,000;77,50000
 993,54;  458,500;  392,000;    0,000;66,50000
 993,85;  434,000;  403,000;    0,000;31,00000
 994,16;  437,500;  438,000;    0,000;-0,50000
 994,47;  464,500;  386,000;    0,000;78,50000
 994,78;  453,000;  414,000;    0,000;39,00000
 995,09;  456,000;  449,500;    0,000; 6,50000
 995,40;  449,000;  412,000;    0,000;37,00000
 995,71;  440,500;  410,500;    0,000;30,00000
 996,02;  439,000;  414,500;    0,000;24,50000
 996,33;  437,000;  437,000;    0,000; 0,00000
 996,64;  440,000;  459,500;    0,000;-19,50000
 996,95;  482,500;  423,500;    0,000;59,00000
 997,26;  465,000;  409,000;    0,000;56,00000
 997,57;  449,500;  417,000;    0,000;32,50000
 997,88;  511,000;  452,000;    0,000;59,00000
 998,19;  422,000;  373,500;    0,000;48,50000
 998,50;  449,000;  442,500;    0,000; 6,50000
 998,81;  457,500;  482,500;    0,000;-25,00000
 999,12;  445,500;  436,500;    0,000; 9,00000
 999,43;  444,000;  437,000;    0,000; 7,00000
 999,74;  454,000;  436,500;    0,000;17,50000
1000,05;  438,500;  449,000;    0,000;-10,50000
1000,36;  463,500;  365,000;    0,000;98,50000
1000,67;  465,500;  386,000;    0,000;79,50000
1000,97;  469,500;  515,500;    0,000;-46,00000
1001,28;  474,000;  436,000;    0,000;38,00000
1001,59;  455,000;  441,000;    0,000;14,00000
1001,90;  421,500;  418,500;    0,000; 3,00000
1002,21;  469,500;  422,000;    0,000;47,50000
1002,52;  454,500;  426,500;    0,000;28,00000
1002,83;  499,000;  439,000;    0,000;60,00000
1003,14;  490,000;  467,000;    0,000;23,00000
1003,45;  500,500;  452,000;    0,000;48,50000
1003,76;  427,500;  432,000;    0,000;-4,50000
1004,07;  410,000;  444,000;    0,000;-34,00000
1004,38;  465,500;  396,500;    0,000;69,00000
1004,69;  486,500;  417,500;    0,000;69,00000
1005,00;  469,000;  412,500;    0,000;56,50000
1005,31;  420,500;  441,500;    0,000;-21,00000
1005,61;  435,500;  416,500;    0,000;19,00000
1005,92;  465,500;  430,000;    0,000;35,50000
1006,23;  471,000;  395,500;    0,000;75,50000
1006,54;  417,500;  472,000;    0,000;-54,50000
1006,85;  457,000;  414,500;    0,000;42,50000
1007,16;  456,500;  428,000;    0,000;28,50000
1007,47;  445,500;  418,500;    0,000;27,00000
1007,78;  491,000;  385,500;    0,000;105,50000
1008,09;  457,500;  441,000;    0,000;16,50000
1008,40;  481,500;  407,000;    0,000;74,50000
1008,71;  430,000;  400,000;    0,000;30,00000
1009,01;  467,500;  396,000;    0,000;71,50000
1009,32;  436,500;  408,500;    0,000;28,00000
1009,63;  454,500;  391,500;    0,000;63,00000
1009,94;  452,500;  443,000;    0,000; 9,50000
1010,25;  455,000;  369,500;    0,000;85,50000
1010,56;  524,500;  395,000;    0,000;129,50000
1010,87;  416,000;  415,000;    0,000; 1,00000
1011,18;  485,000;  457,500;    0,000;27,50000
1011,49;  442,000;  382,500;    0,000;59,50000
1011,79;  465,000;  443,500;    0,000;21,50000
1012,10;  487,000;  420,000;    0,000;67,00000
1012,41;  459,000;  394,000;    0,000;65,00000
1012,72;  454,500;  453,500;    0,000; 1,00000
1013,03;  488,500;  422,000;    0,000;66,50000
1013,34;  435,000;  466,500;    0,000;-31,50000
1013,65;  508,500;  411,500;    0,000;97,00000
1013,96;  472,500;  415,500;    0,000;57,00000
1014,27;  422,000;  382,500;    0,000;39,50000
1014,57;  452,000;  408,000;    0,000;44,00000
1014,88;  484,000;  435,000;    0,000;49,00000
1015,19;  489,000;  444,500;    0,000;44,50000
1015,50;  415,000;  448,500;    0,000;-33,50000
1015,81;  459,000;  437,000;    0,000;22,00000
1016,12;  482,000;  386,500;    0,000;95,50000
1016,43;  444,500;  386,500;    0,000;58,00000
1016,73;  508,000;  465,000;    0,000;43,00000
1017,04;  448,500;  415,000;    0,000;33,50000
1017,35;  427,000;  433,500;    0,000;-6,50000
1017,66;  440,500;  424,000;    0,000;16,50000
1017,97;  458,000;  401,000;    0,000;57,00000
1018,28;  451,500;  450,500;    0,000; 1,00000
1018,59;  447,000;  415,500;    0,000;31,50000
1018,89;  430,000;  378,500;    0,000;51,50000
1019,20;  425,000;  429,500;    0,000;-4,50000
1019,51;  450,500;  432,000;    0,000;18,50000
1019,82;  439,500;  434,000;    0,000; 5,50000
1020,13;  446,000;  453,500;    0,000;-7,50000
1020,44;  446,000;  436,000;    0,000;10,00000
1020,74;  475,000;  381,500;    0,000;93,50000
1021,05;  459,000;  426,000;    0,000;33,00000
1021,36;  450,500;  404,500;    0,000;46,00000
1021,67;  485,500;  436,500;    0,000;49,00000
1021,98;  417,000;  411,000;    0,000; 6,00000
1022,29;  511,000;  405,500;    0,000;105,50000
1022,59;  431,000;  428,000;    0,000; 3,00000
1022,90;  467,000;  416,000;    0,000;51,00000
1023,21;  501,500;  472,000;    0,000;29,50000
1023,52;  461,000;  416,000;    0,000;45,00000
1023,83;  471,500;  425,500;    0,000;46,00000
1024,14;  424,500;  443,000;    0,000;-18,50000
1024,44;  469,500;  391,000;    0,000;78,50000
1024,75;  457,500;  446,000;    0,000;11,50000
1025,06;  451,500;  446,000;    0,000; 5,50000
1025,37;  450,500;  438,500;    0,000;12,00000
1025,68;  422,000;  430,500;    0,000;-8,50000
1025,98;  441,500;  467,000;    0,000;-25,50000
1026,29;  452,500;  451,500;    0,000; 1,00000
1026,60;  435,500;  449,500;    0,000;-14,00000
1026,91;  449,000;  390,000;    0,000;59,00000
1027,22;  444,500;  424,000;    0,000;20,50000
1027,52;  445,500;  424,500;    0,000;21,00000
1027,83;  455,000;  439,500;    0,000;15,50000
1028,14;  440,500;  414,500;    0,000;26,00000
1028,45;  441,500;  439,000;    0,000; 2,50000
1028,76;  486,000;  427,000;    0,000;59,00000
1029,06;  451,500;  488,000;    0,000;-36,50000
1029,37;  462,500;  380,500;    0,000;82,00000
1029,68;  482,000;  433,000;    0,000;49,00000
1029,99;  450,500;  453,500;    0,000;-3,00000
1030,30;  462,000;  412,000;    0,000;50,00000
1030,60;  414,500;  411,500;    0,000; 3,00000
1030,91;  466,000;  397,000;    0,000;69,00000
1031,22;  462,500;  469,000;    0,000;-6,50000
1031,53;  484,000;  420,500;    0,000;63,50000
1031,83;  457,000;  473,000;    0,000;-16,00000
1032,14;  491,000;  466,500;    0,000;24,50000
1032,45;  478,500;  423,500;    0,000;55,00000
1032,76;  450,000;  399,000;    0,000;51,00000
1033,07;  450,000;  424,000;    0,000;26,00000
1033,37;  476,500;  413,000;    0,000;63,50000
1033,68;  414,500;  415,000;    0,000;-0,50000
1033,99;  477,000;  421,500;    0,000;55,50000
1034,30;  509,000;  440,000;    0,000;69,00000
1034,60;  462,000;  429,500;    0,000;32,50000
1034,91;  425,000;  448,500;    0,000;-23,50000
1035,22;  402,000;  409,500;    0,000;-7,50000
1035,53;  489,000;  421,500;    0,000;67,50000
1035,83;  463,000;  447,500;    0,000;15,50000
1036,14;  440,000;  495,500;    0,000;-55,50000
1036,45;  470,000;  474,000;    0,000;-4,00000
1036,76;  459,000;  456,500;    0,000; 2,50000
1037,06;  442,500;  436,500;    0,000; 6,00000
1037,37;  451,500;  463,500;    0,000;-12,00000
1037,68;  449,500;  488,500;    0,000;-39,00000
1037,99;  446,500;  481,000;    0,000;-34,50000
1038,29;  452,500;  494,000;    0,000;-41,50000
1038,60;  455,000;  458,000;    0,000;-3,00000
1038,91;  479,500;  434,500;    0,000;45,00000
1039,22;  452,500;  427,000;    0,000;25,50000
1039,52;  453,000;  402,000;    0,000;51,00000
1039,83;  495,000;  491,500;    0,000; 3,50000
1040,14;  431,000;  470,500;    0,000;-39,50000
1040,44;  440,500;  434,000;    0,000; 6,50000
1040,75;  483,000;  454,500;    0,000;28,50000
1041,06;  464,500;  473,000;    0,000;-8,50000
1041,37;  486,500;  414,500;    0,000;72,00000
1041,67;  454,000;  445,000;    0,000; 9,00000
1041,98;  445,000;  440,500;    0,000; 4,50000
1042,29;  465,000;  403,000;    0,000;62,00000
1042,59;  454,000;  454,000;    0,000; 0,00000
1042,90;  436,000;  463,000;    0,000;-27,00000
1043,21;  449,000;  445,500;    0,000; 3,50000
1043,52;  444,000;  420,000;    0,000;24,00000
1043,82;  473,500;  435,000;    0,000;38,50000
1044,13;  408,500;  417,500;    0,000;-9,00000
1044,44;  442,500;  387,000;    0,000;55,50000
1044,74;  472,000;  400,500;    0,000;71,50000
1045,05;  488,000;  438,500;    0,000;49,50000
1045,36;  447,500;  437,500;    0,000;10,00000
1045,67;  495,000;  436,500;    0,000;58,50000
1045,97;  447,000;  433,000;    0,000;14,00000
1046,28;  438,000;  468,000;    0,000;-30,00000
1046,59;  470,500;  445,000;    0,000;25,50000
1046,89;  450,500;  435,500;    0,000;15,00000
1047,20;  485,500;  428,000;    0,000;57,50000
1047,51;  476,000;  409,000;    0,000;67,00000
1047,81;  482,500;  494,500;    0,000;-12,00000
1048,12;  444,000;  423,500;    0,000;20,50000
1048,43;  427,000;  471,500;    0,000;-44,50000
1048,73;  456,500;  462,500;    0,000;-6,00000
1049,04;  473,500;  434,500;    0,000;39,00000
1049,35;  438,000;  447,000;    0,000;-9,00000
1049,65;  439,000;  456,500;    0,000;-17,50000
1049,96;  434,000;  473,500;    0,000;-39,50000
1050,27;  434,000;  434,000;    0,000; 0,00000
1050,57;  512,500;  450,000;    0,000;62,50000
1050,88;  482,500;  446,000;    0,000;36,50000
1051,19;  462,500;  419,000;    0,000;43,50000
1051,49;  419,500;  441,500;    0,000;-22,00000
1051,80;  459,500;  416,000;    0,000;43,50000
1052,11;  482,000;  433,500;    0,000;48,50000
1052,41;  489,000;  398,000;    0,000;91,00000
1052,72;  421,000;  456,500;    0,000;-35,50000
1053,03;  478,500;  430,500;    0,000;48,00000
1053,33;  441,500;  369,500;    0,000;72,00000
1053,64;  456,500;  475,500;    0,000;-19,00000
1053,95;  480,500;  426,000;    0,000;54,50000
1054,25;  481,500;  384,000;    0,000;97,50000
1054,56;  416,000;  436,000;    0,000;-20,00000
1054,87;  431,500;  400,500;    0,000;31,00000
1055,17;  465,000;  446,500;    0,000;18,50000
1055,48;  438,000;  441,000;    0,000;-3,00000
1055,79;  443,500;  439,000;    0,000; 4,50000
1056,09;  421,000;  399,500;    0,000;21,50000
1056,40;  483,500;  504,000;    0,000;-20,50000
1056,70;  480,500;  414,000;    0,000;66,50000
1057,01;  456,000;  397,000;    0,000;59,00000
1057,32;  441,500;  417,500;    0,000;24,00000
1057,62;  465,500;  419,500;    0,000;46,00000
1057,93;  461,500;  425,000;    0,000;36,50000
1058,24;  440,000;  408,500;    0,000;31,50000
1058,54;  439,000;  398,000;    0,000;41,00000
1058,85;  459,500;  402,500;    0,000;57,00000
1059,15;  458,500;  423,500;    0,000;35,00000
1059,46;  476,500;  423,500;    0,000;53,00000
1059,77;  421,500;  401,000;    0,000;20,50000
1060,07;  438,500;  485,500;    0,000;-47,00000
1060,38;  471,500;  406,000;    0,000;65,50000
1060,69;  455,000;  364,500;    0,000;90,50000
1060,99;  443,000;  411,500;    0,000;31,50000
1061,30;  462,500;  456,500;    0,000; 6,00000
1061,60;  422,000;  396,500;    0,000;25,50000
1061,91;  422,500;  482,500;    0,000;-60,00000
1062,22;  438,000;  431,000;    0,000; 7,00000
1062,52;  484,000;  383,500;    0,000;100,50000
1062,83;  444,000;  426,000;    0,000;18,00000
1063,13;  495,500;  429,000;    0,000;66,50000
1063,44;  482,000;  433,000;    0,000;49,00000
1063,75;  467,000;  411,500;    0,000;55,50000
1064,05;  473,000;  463,500;    0,000; 9,50000
1064,36;  414,000;  462,500;    0,000;-48,50000
1064,66;  511,500;  400,000;    0,000;111,50000
1064,97;  450,500;  421,000;    0,000;29,50000
1065,28;  426,500;  440,500;    0,000;-14,00000
1065,58;  462,000;  423,500;    0,000;38,50000
1065,89;  435,500;  402,000;    0,000;33,50000
1066,19;  431,500;  428,500;    0,000; 3,00000
1066,50;  446,000;  443,500;    0,000; 2,50000
1066,80;  467,000;  430,000;    0,000;37,00000
1067,11;  441,000;  438,500;    0,000; 2,50000
1067,42;  461,500;  441,500;    0,000;20,00000
1067,72;  436,500;  482,000;    0,000;-45,50000
1068,03;  491,000;  395,500;    0,000;95,50000
1068,33;  421,000;  394,000;    0,000;27,00000
1068,64;  452,500;  412,000;    0,000;40,50000
1068,94;  464,500;  429,500;    0,000;35,00000
1069,25;  456,000;  455,000;    0,000; 1,00000
1069,56;  470,500;  375,500;    0,000;95,00000
1069,86;  439,500;  410,000;    0,000;29,50000
1070,17;  432,000;  415,500;    0,000;16,50000
1070,47;  451,000;  470,500;    0,000;-19,50000
1070,78;  471,500;  453,500;    0,000;18,00000
1071,08;  478,000;  418,500;    0,000;59,50000
1071,39;  444,500;  436,500;    0,000; 8,00000
1071,69;  448,500;  424,500;    0,000;24,00000
1072,00;  451,500;  420,000;    0,000;31,50000
1072,31;  449,500;  420,500;    0,000;29,00000
1072,61;  488,000;  437,000;    0,000;51,00000
1072,92;  516,000;  428,000;    0,000;88,00000
1073,22;  492,000;  418,000;    0,000;74,00000
1073,53;  479,500;  420,000;    0,000;59,50000
1073,83;  410,500;  476,000;    0,000;-65,50000
1074,14;  467,500;  492,000;    0,000;-24,50000
1074,44;  484,500;  432,000;    0,000;52,50000
1074,75;  426,000;  412,000;    0,000;14,00000
1075,05;  466,500;  439,500;    0,000;27,00000
1075,36;  449,000;  450,000;    0,000;-1,00000
1075,66;  437,500;  417,000;    0,000;20,50000
1075,97;  457,000;  415,000;    0,000;42,00000
1076,27;  433,000;  416,500;    0,000;16,50000
1076,58;  456,000;  396,500;    0,000;59,50000
1076,88;  490,000;  426,500;    0,000;63,50000
1077,19;  503,500;  395,000;    0,000;108,50000
1077,50;  417,000;  460,500;    0,000;-43,50000
1077,80;  442,000;  434,000;    0,000; 8,00000
1078,11;  497,500;  448,000;    0,000;49,50000
1078,41;  489,000;  432,000;    0,000;57,00000
1078,72;  473,500;  402,500;    0,000;71,00000
1079,02;  469,000;  400,000;    0,000;69,00000
1079,33;  475,500;  400,500;    0,000;75,00000
1079,63;  494,500;  412,000;    0,000;82,50000
1079,94;  451,500;  418,500;    0,000;33,00000
1080,24;  438,500;  427,000;    0,000;11,50000
1080,55;  459,500;  402,000;    0,000;57,50000
1080,85;  487,500;  452,000;    0,000;35,50000
1081,16;  470,000;  436,000;    0,000;34,00000
1081,46;  450,500;  464,000;    0,000;-13,50000
1081,77;  455,000;  439,500;    0,000;15,50000
1082,07;  468,500;  456,000;    0,000;12,50000
1082,38;  453,500;  433,000;    0,000;20,50000
1082,68;  492,500;  396,500;    0,000;96,00000
1082,98;  476,000;  391,500;    0,000;84,50000
1083,29;  484,500;  400,500;    0,000;84,00000
1083,59;  445,000;  417,500;    0,000;27,50000
1083,90;  443,500;  413,500;    0,000;30,00000
1084,20;  455,000;  386,000;    0,000;69,00000
1084,51;  420,000;  455,500;    0,000;-35,50000
1084,81;  435,000;  431,000;    0,000; 4,00000
1085,12;  458,000;  411,500;    0,000;46,50000
1085,42;  454,500;  451,500;    0,000; 3,00000
1085,73;  478,500;  414,000;    0,000;64,50000
1086,03;  422,500;  447,500;    0,000;-25,00000
1086,34;  454,000;  402,500;    0,000;51,50000
1086,64;  472,500;  438,500;    0,000;34,00000
1086,95;  462,000;  415,500;    0,000;46,50000
1087,25;  463,000;  442,000;    0,000;21,00000
1087,56;  445,000;  428,500;    0,000;16,50000
1087,86;  447,500;  413,000;    0,000;34,50000
1088,16;  510,000;  408,000;    0,000;102,00000
1088,47;  476,500;  419,500;    0,000;57,00000
1088,77;  477,500;  412,000;    0,000;65,50000
1089,08;  441,000;  411,000;    0,000;30,00000
1089,38;  487,500;  423,000;    0,000;64,50000
1089,69;  440,500;  430,500;    0,000;10,00000
1089,99;  466,000;  439,500;    0,000;26,50000
1090,30;  480,500;  458,000;    0,000;22,50000
1090,60;  489,500;  371,000;    0,000;118,50000
1090,90;  469,500;  440,500;    0,000;29,00000
1091,21;  445,000;  417,000;    0,000;28,00000
1091,51;  439,500;  370,500;    0,000;69,00000
1091,82;  473,000;  461,500;    0,000;11,50000
1092,12;  429,500;  417,000;    0,000;12,50000
1092,43;  424,500;  405,000;    0,000;19,50000
1092,73;  477,500;  379,000;    0,000;98,50000
1093,03;  439,500;  436,000;    0,000; 3,50000
1093,34;  454,000;  420,500;    0,000;33,50000
1093,64;  457,500;  447,000;    0,000;10,50000
1093,95;  437,000;  456,500;    0,000;-19,50000
1094,25;  420,500;  396,000;    0,000;24,50000
1094,56;  474,500;  431,500;    0,000;43,00000
1094,86;  497,000;  412,000;    0,000;85,00000
1095,16;  424,500;  410,000;    0,000;14,50000
1095,47;  487,000;  437,000;    0,000;50,00000
1095,77;  453,000;  465,000;    0,000;-12,00000
1096,08;  470,000;  392,500;    0,000;77,50000
1096,38;  442,000;  436,500;    0,000; 5,50000
1096,68;  477,000;  429,500;    0,000;47,50000
1096,99;  436,000;  419,000;    0,000;17,00000
1097,29;  466,000;  424,500;    0,000;41,50000
1097,60;  454,500;  417,000;    0,000;37,50000
1097,90;  483,500;  419,000;    0,000;64,50000
1098,20;  503,000;  424,500;    0,000;78,50000
1098,51;  457,500;  401,000;    0,000;56,50000
1098,81;  502,500;  424,000;    0,000;78,50000
1099,12;  459,000;  415,500;    0,000;43,50000
1099,42;  465,500;  439,500;    0,000;26,00000
1099,72;  442,000;  399,000;    0,000;43,00000
1100,03;  456,500;  453,500;    0,000; 3,00000

